Sample	2mm tape 
date	07/01/2025
	
Temperature (K)	77.00
Angle (deg.)	0.000000
field / T	0.000000
	
		
Approx. trace time (s)	120.0	
		
Current / A	V1  -sample/ uV	time/s
-0.022416	-1.681175	0.000000
-0.022637	-1.692240	0.283000
-0.023539	-1.706892	0.328000
0.080704	-1.971687	0.415000
0.100873	-1.813486	1.006000
0.178490	-1.816409	1.174000
0.199732	-1.833865	1.220000
0.229448	-1.838195	1.289000
0.250706	-1.808361	1.335000
0.389947	-1.587077	1.632000
0.411705	-1.561510	1.686000
0.484656	-1.528458	1.742000
0.507522	-1.420310	1.894000
0.528940	-1.411865	1.940000
0.550058	-1.420805	1.986000
0.604588	-1.475729	2.108000
0.625871	-1.485987	2.154000
0.646532	-1.480181	2.199000
0.711456	-1.361369	2.341000
0.732710	-1.333600	2.386000
0.760872	-1.340697	2.448000
0.781670	-1.370705	2.494000
0.801438	-1.390837	2.539000
0.824057	-1.380367	2.585000
0.895510	-1.413526	2.631000
0.917487	-1.422022	2.787000
0.990349	-1.411602	2.836000
1.011524	-1.233327	2.994000
1.031354	-1.184580	3.040000
1.053081	-1.159707	3.085000
1.073616	-1.158446	3.131000
1.125572	-1.340007	3.245000
1.145347	-1.463195	3.291000
1.167265	-1.586501	3.336000
1.188043	-1.698343	3.382000
1.209679	-1.792120	3.427000
1.231118	-1.869980	3.473000
1.277663	-2.026144	3.577000
1.298972	-2.084195	3.623000
1.320188	-2.136242	3.668000
1.398584	-2.293095	3.714000
1.419323	-2.336580	3.886000
1.493314	-2.381168	3.932000
1.514297	-2.549035	4.094000
1.564418	-2.658775	4.203000
1.585843	-2.696825	4.248000
1.607447	-2.731833	4.295000
1.641447	-2.774711	4.370000
1.662115	-2.794166	4.415000
1.683239	-2.810723	4.461000
1.707573	-2.823973	4.515000
1.728462	-2.825310	4.560000
1.749198	-2.819541	4.606000
1.840873	-2.734430	4.805000
1.998331	-2.628548	4.851000
2.018532	-2.661002	5.194000
2.040034	-2.666229	5.239000
2.063481	-2.672788	5.289000
2.083753	-2.671624	5.335000
2.105799	-2.655565	5.381000
2.126949	-2.634551	5.427000
2.151575	-2.588093	5.484000
2.172948	-2.494397	5.530000
2.193354	-2.379922	5.576000
2.214446	-2.281597	5.621000
2.225202	-2.143369	5.667000
2.257346	-2.108374	5.713000
2.278687	-2.071847	5.759000
2.300093	-2.089815	5.805000
2.320512	-2.113183	5.850000
2.341591	-2.116399	5.896000
2.599463	-2.008679	5.943000
2.620727	-2.183458	6.506000
2.641608	-2.245451	6.552000
2.663298	-2.305958	6.598000
2.683691	-2.359166	6.643000
2.705054	-2.390533	6.689000
2.726128	-2.408831	6.734000
2.747322	-2.432282	6.783000
2.768760	-2.466843	6.828000
2.788632	-2.509273	6.874000
2.842982	-2.538169	6.990000
2.913879	-2.301970	7.036000
2.934959	-2.242603	7.192000
3.007616	-2.210802	7.238000
3.028466	-2.119011	7.394000
3.048733	-2.092921	7.439000
3.069864	-2.054620	7.485000
3.089853	-2.024190	7.531000
3.110722	-2.029262	7.577000
3.132296	-2.040763	7.622000
3.153362	-2.048919	7.668000
3.174490	-2.071641	7.714000
3.206170	-2.087482	7.782000
3.227288	-2.068168	7.828000
3.248386	-2.025442	7.874000
3.268969	-1.983082	7.920000
3.289432	-1.982118	7.966000
3.344633	-2.010536	8.083000
3.416091	-2.008255	8.129000
3.444894	-2.043929	8.304000
3.514812	-2.079807	8.349000
3.543106	-2.237896	8.517000
3.563449	-2.306301	8.563000
3.584652	-2.377545	8.608000
3.622693	-2.465607	8.693000
3.643866	-2.475823	8.739000
3.665314	-2.476480	8.784000
3.685873	-2.484802	8.830000
3.706906	-2.503743	8.876000
3.728024	-2.521889	8.922000
3.749008	-2.529115	8.968000
3.770657	-2.522645	9.013000
3.792277	-2.497336	9.059000
3.812507	-2.456667	9.105000
3.833179	-2.405620	9.151000
3.853795	-2.345885	9.196000
3.924412	-2.087705	9.242000
3.946383	-1.971573	9.397000
4.017678	-1.860080	9.443000
4.038938	-1.570654	9.600000
4.059479	-1.497928	9.645000
4.080122	-1.443860	9.691000
4.101723	-1.413353	9.736000
4.122287	-1.398694	9.782000
4.143628	-1.391108	9.828000
4.164931	-1.388775	9.873000
4.185981	-1.385373	9.919000
4.206205	-1.360892	9.965000
4.227521	-1.336568	10.011000
4.248583	-1.307580	10.057000
4.270034	-1.264787	10.102000
4.292105	-1.219635	10.148000
4.312459	-1.177813	10.194000
4.332989	-1.158559	10.240000
4.354095	-1.177084	10.285000
4.424998	-1.423584	10.331000
4.445725	-1.523448	10.487000
4.519710	-1.626515	10.532000
4.540623	-1.958343	10.694000
4.561934	-2.026972	10.740000
4.582971	-2.074030	10.786000
4.603516	-2.093829	10.831000
4.624904	-2.099923	10.877000
4.645749	-2.098123	10.923000
4.667007	-2.095331	10.968000
4.688445	-2.093930	11.014000
4.709949	-2.095764	11.060000
4.750431	-2.113561	11.150000
4.771374	-2.130174	11.196000
4.791641	-2.145160	11.242000
4.813034	-2.147242	11.288000
4.834614	-2.140744	11.333000
4.856330	-2.120800	11.379000
5.121626	-1.381854	11.425000
5.142627	-1.169412	12.006000
5.164159	-1.162835	12.052000
5.185029	-1.165989	12.098000
5.205905	-1.171982	12.143000
5.226734	-1.179210	12.190000
5.247122	-1.190335	12.235000
5.267981	-1.213510	12.281000
5.289529	-1.248531	12.327000
5.311171	-1.277059	12.373000
5.332451	-1.301526	12.418000
5.352885	-1.322594	12.464000
5.433861	-1.287342	12.510000
5.454745	-1.240043	12.687000
5.528934	-1.202507	12.733000
5.549583	-1.136162	12.894000
5.570579	-1.108431	12.940000
5.591598	-1.053219	12.986000
5.612556	-0.981531	13.032000
5.634109	-0.913680	13.078000
5.655326	-0.868265	13.124000
5.676015	-0.848828	13.169000
5.697321	-0.848526	13.215000
5.717898	-0.863496	13.260000
5.738512	-0.887554	13.306000
5.759828	-0.933301	13.352000
5.781303	-1.010525	13.398000
5.803298	-1.091117	13.443000
5.823738	-1.157463	13.490000
5.844195	-1.207195	13.535000
5.865160	-1.247367	13.581000
5.938486	-1.405403	13.627000
5.958639	-1.438984	13.787000
6.033353	-1.467422	13.833000
6.054158	-1.541746	13.994000
6.075072	-1.543512	14.040000
6.096687	-1.543381	14.086000
6.117842	-1.546819	14.132000
6.138638	-1.557686	14.178000
6.159650	-1.560241	14.224000
6.180453	-1.530899	14.269000
6.201065	-1.470860	14.315000
6.222294	-1.409032	14.361000
6.243853	-1.350171	14.407000
6.264570	-1.287028	14.453000
6.285835	-1.234337	14.499000
6.306198	-1.195033	14.544000
6.326971	-1.174029	14.591000
6.348019	-1.177165	14.636000
6.368690	-1.192795	14.682000
6.441969	-1.293224	14.728000
6.463513	-1.309182	14.887000
6.536943	-1.313079	14.933000
6.558830	-1.269444	15.094000
6.580296	-1.244600	15.140000
6.601167	-1.218420	15.186000
6.622257	-1.187299	15.232000
6.642992	-1.158242	15.277000
6.663317	-1.141892	15.323000
6.684813	-1.123903	15.369000
6.706036	-1.095973	15.415000
6.727121	-1.052195	15.460000
6.747411	-1.000001	15.506000
6.768566	-0.944925	15.552000
6.788713	-0.864428	15.598000
6.809428	-0.778612	15.643000
6.830966	-0.722545	15.689000
6.852695	-0.702238	15.735000
6.874700	-0.716058	15.781000
6.947878	-0.779554	15.826000
6.968190	-0.789472	15.987000
7.042835	-0.812412	16.033000
7.063352	-0.918347	16.194000
7.084645	-0.952391	16.240000
7.105402	-1.002292	16.286000
7.126016	-1.053735	16.332000
7.146493	-1.089280	16.377000
7.167835	-1.109955	16.423000
7.189606	-1.114639	16.468000
7.209919	-1.115054	16.514000
7.230447	-1.118420	16.560000
7.250864	-1.107967	16.606000
7.271945	-1.076364	16.652000
7.292715	-1.050226	16.697000
7.314220	-1.041013	16.743000
7.335880	-1.051861	16.788000
7.356585	-1.073374	16.834000
7.376440	-1.105695	16.880000
7.643845	-1.266308	16.926000
7.664920	-1.644927	17.507000
7.685791	-1.633224	17.553000
7.706091	-1.596060	17.598000
7.726803	-1.549434	17.644000
7.747974	-1.497058	17.690000
7.769431	-1.443517	17.736000
7.790639	-1.391016	17.782000
7.811623	-1.334470	17.827000
7.832100	-1.272035	17.873000
7.852608	-1.202366	17.919000
7.873591	-1.131539	17.964000
7.954425	-1.014417	18.010000
7.975648	-0.976938	18.187000
8.049965	-0.932591	18.233000
8.070578	-0.976064	18.394000
8.091825	-1.012554	18.440000
8.113541	-1.039126	18.486000
8.134486	-1.053563	18.532000
8.155242	-1.069786	18.578000
8.175863	-1.101895	18.624000
8.195796	-1.140817	18.669000
8.217376	-1.175193	18.715000
8.237930	-1.199872	18.761000
8.260076	-1.215849	18.807000
8.281298	-1.230062	18.852000
8.302021	-1.230012	18.898000
8.322491	-1.227271	18.944000
8.343362	-1.213864	18.990000
8.364252	-1.181136	19.036000
8.385632	-1.149383	19.082000
8.459055	-1.248984	19.127000
8.480635	-1.331653	19.287000
8.553577	-1.421039	19.333000
8.575560	-1.467433	19.494000
8.596395	-1.464369	19.540000
8.617607	-1.471729	19.586000
8.638380	-1.474682	19.632000
8.658843	-1.458115	19.678000
8.679638	-1.416789	19.724000
8.700520	-1.359990	19.770000
8.721807	-1.317524	19.815000
8.743242	-1.299156	19.861000
8.763620	-1.295290	19.907000
8.784307	-1.298471	19.953000
8.805137	-1.308450	19.998000
8.825608	-1.325458	20.044000
8.847430	-1.337832	20.090000
8.869029	-1.331087	20.135000
8.890393	-1.309434	20.181000
8.963178	-1.244711	20.227000
8.984243	-1.232957	20.387000
9.058757	-1.235704	20.432000
9.079203	-1.279520	20.595000
9.100224	-1.282220	20.640000
9.120527	-1.276722	20.686000
9.140938	-1.277231	20.732000
9.162209	-1.299026	20.778000
9.183834	-1.339854	20.823000
9.204385	-1.388037	20.869000
9.225242	-1.437444	20.915000
9.245520	-1.485651	20.961000
9.266690	-1.524665	21.006000
9.287189	-1.553467	21.052000
9.308814	-1.587978	21.098000
9.330406	-1.635667	21.143000
9.351796	-1.692664	21.189000
9.372833	-1.746824	21.235000
9.393632	-1.791734	21.281000
9.467001	-1.845956	21.327000
9.487142	-1.845168	21.487000
9.562481	-1.846313	21.533000
9.583127	-1.880926	21.695000
9.603609	-1.854850	21.740000
9.624007	-1.803224	21.786000
9.645436	-1.735191	21.832000
9.667524	-1.664558	21.878000
9.688468	-1.603662	21.924000
9.709398	-1.552851	21.969000
9.729688	-1.511445	22.015000
9.750807	-1.477998	22.061000
9.771558	-1.447813	22.107000
9.792339	-1.417441	22.153000
9.813641	-1.383283	22.199000
9.834634	-1.344036	22.244000
9.855534	-1.300840	22.290000
9.876256	-1.253431	22.336000
9.896901	-1.209695	22.382000
10.162118	-0.967468	22.428000
10.182915	-0.808960	23.007000
10.204236	-0.828915	23.053000
10.224975	-0.860331	23.099000
10.246267	-0.894081	23.145000
10.267959	-0.927398	23.190000
10.289454	-0.960034	23.236000
10.310224	-0.988018	23.282000
10.331270	-1.016012	23.328000
10.351506	-1.046934	23.374000
10.372772	-1.077539	23.420000
10.394109	-1.103606	23.466000
10.473971	-1.166453	23.511000
10.495504	-1.132533	23.687000
10.568981	-1.067989	23.733000
10.590585	-0.843547	23.895000
10.611916	-0.803777	23.941000
10.632912	-0.774987	23.987000
10.653358	-0.748999	24.032000
10.673868	-0.724210	24.078000
10.695150	-0.698386	24.124000
10.715992	-0.675848	24.170000
10.737811	-0.655197	24.216000
10.759074	-0.642462	24.262000
10.779774	-0.648697	24.307000
10.800431	-0.678624	24.353000
10.821164	-0.729827	24.399000
10.842254	-0.801236	24.444000
10.863237	-0.878199	24.490000
10.884114	-0.938706	24.536000
10.905950	-0.979421	24.581000
10.978828	-1.080300	24.627000
10.999227	-1.101601	24.787000
11.074103	-1.124816	24.833000
11.095436	-1.189488	24.995000
11.115356	-1.231026	25.041000
11.136028	-1.277432	25.086000
11.157113	-1.310407	25.132000
11.178194	-1.315156	25.178000
11.199309	-1.303098	25.224000
11.220897	-1.294662	25.270000
11.241742	-1.305680	25.316000
11.262487	-1.330695	25.361000
11.283200	-1.354129	25.407000
11.303997	-1.370249	25.453000
11.325023	-1.386131	25.499000
11.346271	-1.406468	25.544000
11.367180	-1.418118	25.590000
11.388864	-1.397689	25.636000
11.409517	-1.351326	25.682000
11.481560	-1.377184	25.728000
11.502763	-1.441791	25.887000
11.577223	-1.513247	25.933000
11.597627	-1.733512	26.095000
11.618673	-1.782118	26.140000
11.639760	-1.824871	26.186000
11.660842	-1.863844	26.232000
11.682524	-1.901738	26.278000
11.703363	-1.939021	26.324000
11.723782	-1.974158	26.369000
11.744580	-2.002253	26.415000
11.765462	-2.022288	26.461000
11.786766	-2.033899	26.507000
11.807742	-2.037662	26.552000
11.828814	-2.035647	26.598000
11.849878	-2.030113	26.644000
11.870593	-2.024090	26.689000
11.891351	-2.018840	26.735000
11.912725	-2.017199	26.781000
11.985753	-2.042865	26.827000
12.006656	-2.060259	26.987000
12.081148	-2.077014	27.033000
12.102143	-2.067689	27.195000
12.122700	-2.024953	27.240000
12.144210	-1.968878	27.286000
12.165339	-1.905634	27.332000
12.186307	-1.839712	27.378000
12.207230	-1.777621	27.424000
12.228552	-1.724228	27.470000
12.249401	-1.678944	27.515000
12.270341	-1.642103	27.562000
12.291827	-1.609635	27.607000
12.313040	-1.578448	27.653000
12.333930	-1.544699	27.699000
12.354739	-1.507266	27.744000
12.375493	-1.465404	27.790000
12.396196	-1.418320	27.836000
12.416725	-1.359123	27.882000
12.682421	-1.168278	27.928000
12.703685	-1.056198	28.507000
12.724900	-1.020328	28.553000
12.746092	-0.987634	28.599000
12.766798	-0.965540	28.644000
12.787828	-0.956903	28.690000
12.808541	-0.957095	28.736000
12.830002	-0.956313	28.782000
12.851237	-0.950170	28.828000
12.871820	-0.939376	28.873000
12.892968	-0.935226	28.919000
12.914707	-0.940540	28.965000
12.995088	-0.980961	29.011000
13.016027	-1.032038	29.187000
13.090811	-1.090284	29.233000
13.111719	-1.186346	29.395000
13.131980	-1.191857	29.441000
13.153461	-1.199214	29.487000
13.174093	-1.208233	29.532000
13.195218	-1.219391	29.578000
13.216735	-1.231016	29.624000
13.237755	-1.245220	29.670000
13.258719	-1.261944	29.716000
13.279282	-1.279731	29.761000
13.299751	-1.294782	29.807000
13.320504	-1.302548	29.853000
13.341356	-1.305881	29.899000
13.362106	-1.302972	29.945000
13.383966	-1.296303	29.990000
13.404411	-1.288193	30.036000
13.425547	-1.281742	30.082000
13.498574	-1.266782	30.128000
13.519343	-1.261183	30.287000
13.593731	-1.255058	30.333000
13.614631	-1.219371	30.495000
13.635456	-1.194901	30.541000
13.656655	-1.170330	30.586000
13.678429	-1.146521	30.632000
13.699798	-1.131771	30.678000
13.720126	-1.122574	30.724000
13.740755	-1.107997	30.769000
13.761662	-1.086019	30.815000
13.782514	-1.064970	30.861000
13.803407	-1.052134	30.907000
13.824145	-1.047968	30.952000
13.845949	-1.050907	30.998000
13.866755	-1.061067	31.044000
13.887320	-1.076101	31.090000
13.908671	-1.087255	31.135000
13.929380	-1.088175	31.181000
14.002367	-1.007290	31.227000
14.023370	-0.966757	31.387000
14.097946	-0.924370	31.433000
14.119236	-0.797250	31.595000
14.140315	-0.780633	31.641000
14.161129	-0.782305	31.687000
14.182372	-0.802583	31.732000
14.203206	-0.833159	31.778000
14.223924	-0.871041	31.824000
14.245217	-0.913073	31.870000
14.266522	-0.954032	31.916000
14.287125	-0.985311	31.961000
14.308144	-1.004807	32.007000
14.329592	-1.017066	32.053000
14.350195	-1.026536	32.099000
14.370612	-1.041952	32.144000
14.391853	-1.071855	32.190000
14.412123	-1.114882	32.236000
14.433608	-1.168208	32.282000
14.506603	-1.359082	32.327000
14.527784	-1.392661	32.487000
14.602392	-1.404938	32.533000
14.623954	-1.360570	32.695000
14.645034	-1.368779	32.741000
14.665883	-1.393601	32.786000
14.686443	-1.429909	32.832000
14.706830	-1.466943	32.878000
14.728104	-1.492293	32.924000
14.748955	-1.496977	32.970000
14.769915	-1.482976	33.015000
14.791003	-1.462310	33.061000
14.812002	-1.435163	33.107000
14.832889	-1.404978	33.153000
14.854306	-1.372281	33.198000
14.874572	-1.334511	33.244000
14.895382	-1.291606	33.290000
14.917181	-1.244872	33.336000
14.938464	-1.190396	33.382000
15.203107	-0.785838	33.427000
15.224137	-0.774478	34.007000
15.245079	-0.799761	34.053000
15.266533	-0.840861	34.099000
15.287077	-0.893280	34.145000
15.307601	-0.952961	34.191000
15.328625	-1.014875	34.237000
15.349034	-1.072673	34.282000
15.371100	-1.125396	34.328000
15.392372	-1.180273	34.374000
15.413606	-1.236766	34.420000
15.434217	-1.294155	34.466000
15.514795	-1.480400	34.512000
15.535264	-1.521827	34.688000
15.609789	-1.561335	34.733000
15.630310	-1.667018	34.895000
15.651821	-1.682396	34.941000
15.673120	-1.691409	34.987000
15.693680	-1.691325	35.033000
15.715681	-1.682972	35.078000
15.736394	-1.664010	35.124000
15.757066	-1.632718	35.170000
15.777543	-1.595546	35.216000
15.798528	-1.555627	35.262000
15.819141	-1.512822	35.307000
15.840609	-1.466145	35.354000
15.861905	-1.415846	35.399000
15.883470	-1.367806	35.445000
15.904736	-1.321985	35.491000
15.925016	-1.274000	35.537000
15.946364	-1.224962	35.582000
16.019142	-1.041711	35.628000
16.039989	-0.998023	35.788000
16.113819	-0.963400	35.833000
16.135079	-0.889354	35.995000
16.156116	-0.869369	36.041000
16.177292	-0.844313	36.087000
16.198571	-0.812513	36.133000
16.219149	-0.765299	36.179000
16.239949	-0.719859	36.224000
16.261297	-0.699653	36.270000
16.281579	-0.702268	36.316000
16.302816	-0.714468	36.362000
16.324363	-0.728853	36.408000
16.346021	-0.746287	36.454000
16.367701	-0.767341	36.499000
16.387703	-0.784055	36.546000
16.407813	-0.799403	36.591000
16.429553	-0.808536	36.637000
16.450289	-0.807785	36.683000
16.523009	-0.696654	36.729000
16.544619	-0.652265	36.888000
16.618637	-0.603014	36.933000
16.639477	-0.478729	37.095000
16.660554	-0.472584	37.141000
16.681503	-0.477191	37.187000
16.701899	-0.480443	37.233000
16.723063	-0.475866	37.278000
16.743968	-0.465568	37.324000
16.764713	-0.457745	37.370000
16.786192	-0.472695	37.416000
16.807420	-0.494006	37.462000
16.828544	-0.502813	37.507000
16.849250	-0.516483	37.553000
16.870240	-0.550598	37.599000
16.891256	-0.595958	37.645000
16.911986	-0.626850	37.691000
16.933705	-0.637778	37.736000
16.955288	-0.651356	37.782000
17.028087	-0.652956	37.828000
17.048886	-0.620197	37.988000
17.122576	-0.588466	38.033000
17.143519	-0.487408	38.195000
17.164291	-0.404212	38.241000
17.185162	-0.315546	38.287000
17.206358	-0.253442	38.333000
17.226741	-0.233886	38.379000
17.248243	-0.241796	38.425000
17.269933	-0.257702	38.470000
17.290563	-0.273051	38.516000
17.311403	-0.294655	38.562000
17.331937	-0.326126	38.607000
17.352943	-0.369079	38.653000
17.373913	-0.422241	38.699000
17.395335	-0.472171	38.745000
17.416685	-0.514195	38.791000
17.437730	-0.550891	38.837000
17.458045	-0.580971	38.883000
17.724329	-0.710156	38.928000
17.744901	-0.831924	39.507000
17.765455	-0.841580	39.553000
17.786271	-0.846802	39.599000
17.807571	-0.845115	39.645000
17.828684	-0.836062	39.691000
17.850318	-0.823693	39.737000
17.871747	-0.812931	39.783000
17.893094	-0.802271	39.829000
17.913419	-0.790727	39.875000
17.934170	-0.776796	39.920000
17.955340	-0.772476	39.966000
18.035130	-0.849292	40.012000
18.056004	-0.849333	40.188000
18.130832	-0.834533	40.233000
18.151491	-0.715215	40.395000
18.173137	-0.657792	40.441000
18.194512	-0.599809	40.487000
18.215457	-0.544006	40.533000
18.235849	-0.484419	40.579000
18.256900	-0.426440	40.624000
18.277444	-0.372753	40.670000
18.298479	-0.329879	40.716000
18.319703	-0.302888	40.761000
18.341387	-0.296936	40.807000
18.362184	-0.296563	40.853000
18.382991	-0.288654	40.898000
18.403414	-0.283087	40.944000
18.424196	-0.262183	40.990000
18.445277	-0.219500	41.035000
18.466441	-0.175974	41.081000
18.540005	-0.303323	41.127000
18.561345	-0.394826	41.288000
18.634584	-0.484419	41.334000
18.656169	-0.614397	41.495000
18.677483	-0.636672	41.541000
18.697804	-0.627702	41.587000
18.718948	-0.616884	41.633000
18.739408	-0.601413	41.679000
18.760257	-0.571057	41.725000
18.781582	-0.511009	41.771000
18.803115	-0.416620	41.816000
18.825049	-0.312985	41.862000
18.846161	-0.212059	41.908000
18.866569	-0.119606	41.954000
18.887339	-0.045886	42.000000
18.908480	0.008693	42.046000
18.929198	0.049097	42.092000
18.950835	0.077022	42.137000
18.971986	0.089019	42.183000
19.044283	0.041728	42.229000
19.065224	0.024751	42.388000
19.139673	0.008077	42.433000
19.160501	-0.093781	42.595000
19.181026	-0.131649	42.641000
19.202042	-0.153173	42.687000
19.222609	-0.160694	42.733000
19.243475	-0.170572	42.779000
19.265219	-0.181985	42.825000
19.286833	-0.191516	42.871000
19.307518	-0.197956	42.916000
19.328058	-0.214543	42.962000
19.349065	-0.255642	43.008000
19.369668	-0.321417	43.054000
19.391076	-0.404795	43.100000
19.412142	-0.489207	43.146000
19.433289	-0.571728	43.192000
19.454119	-0.647146	43.237000
19.474793	-0.712337	43.283000
19.547980	-0.767391	43.329000
19.568449	-0.745037	43.488000
19.643055	-0.741892	43.534000
19.664161	-0.915927	43.695000
19.685041	-0.982958	43.741000
19.706021	-1.045207	43.787000
19.727448	-1.095393	43.833000
19.748393	-1.130372	43.879000
19.769396	-1.150009	43.925000
19.789853	-1.159327	43.971000
19.810504	-1.163006	44.016000
19.831469	-1.170319	44.062000
19.852679	-1.175453	44.107000
19.874920	-1.177703	44.154000
19.896722	-1.179330	44.199000
19.916987	-1.188434	44.245000
19.937568	-1.196267	44.291000
19.958461	-1.187399	44.337000
19.979469	-1.156071	44.382000
20.245336	-1.062335	44.428000
20.265753	-0.916546	45.007000
20.286648	-0.869085	45.054000
20.307580	-0.809548	45.099000
20.329472	-0.743046	45.145000
20.350336	-0.686705	45.191000
20.371322	-0.635699	45.237000
20.391612	-0.583282	45.283000
20.412709	-0.546813	45.329000
20.433368	-0.529010	45.374000
20.454480	-0.532175	45.420000
20.476055	-0.536667	45.466000
20.556234	-0.535198	45.512000
20.578450	-0.489028	45.688000
20.652329	-0.453099	45.734000
20.673633	-0.445219	45.895000
20.694227	-0.418827	45.941000
20.715212	-0.394489	45.987000
20.735648	-0.371167	46.033000
20.756480	-0.356090	46.079000
20.777523	-0.354604	46.124000
20.798889	-0.346503	46.171000
20.820472	-0.333474	46.216000
20.841280	-0.315888	46.262000
20.861739	-0.300803	46.307000
20.882756	-0.311453	46.354000
20.903822	-0.338383	46.399000
20.924361	-0.381359	46.445000
20.945714	-0.434397	46.491000
20.966991	-0.468629	46.537000
20.987569	-0.474480	46.582000
21.061394	-0.428082	46.628000
21.081653	-0.467988	46.788000
21.155651	-0.546874	46.833000
21.176502	-0.887907	46.995000
21.197508	-0.941694	47.041000
21.217812	-0.982278	47.087000
21.239103	-1.007532	47.133000
21.260288	-1.014916	47.179000
21.281923	-1.009803	47.225000
21.303432	-0.981793	47.271000
21.323928	-0.917121	47.316000
21.344627	-0.846660	47.362000
21.365250	-0.810471	47.408000
21.386143	-0.792417	47.453000
21.406833	-0.749009	47.499000
21.428417	-0.686038	47.545000
21.449228	-0.656171	47.591000
21.470321	-0.678018	47.637000
21.490986	-0.742648	47.682000
21.564774	-1.007617	47.728000
21.585709	-1.068145	47.888000
21.660427	-1.122953	47.934000
21.680815	-1.253742	48.096000
21.701929	-1.280764	48.141000
21.723047	-1.327192	48.187000
21.744390	-1.380859	48.233000
21.766098	-1.416446	48.279000
21.786566	-1.422043	48.325000
21.807168	-1.407078	48.371000
21.827849	-1.384610	48.417000
21.848979	-1.359525	48.462000
21.869841	-1.340826	48.508000
21.891355	-1.340755	48.554000
21.912969	-1.356426	48.600000
21.933532	-1.383000	48.646000
21.954096	-1.413109	48.691000
21.975502	-1.441255	48.737000
21.996505	-1.464766	48.783000
22.069412	-1.531943	48.829000
22.089974	-1.552260	48.988000
22.163517	-1.575429	49.034000
22.184815	-1.635970	49.196000
22.205983	-1.646172	49.242000
22.228198	-1.650293	49.287000
22.248907	-1.652713	49.333000
22.269345	-1.657946	49.379000
22.290409	-1.668505	49.425000
22.310903	-1.680532	49.471000
22.332042	-1.692367	49.517000
22.353684	-1.707856	49.563000
22.374456	-1.725816	49.608000
22.395636	-1.744242	49.654000
22.416479	-1.759052	49.700000
22.437002	-1.771950	49.745000
22.457430	-1.783059	49.791000
22.478848	-1.793800	49.837000
22.499656	-1.802160	49.883000
22.764799	-1.870563	49.929000
22.786017	-1.820812	50.508000
22.807667	-1.801291	50.554000
22.829490	-1.794314	50.600000
22.849432	-1.806478	50.645000
22.870331	-1.838565	50.691000
22.890950	-1.876291	50.737000
22.912187	-1.901707	50.783000
22.932721	-1.900666	50.829000
22.953835	-1.857241	50.874000
22.975635	-1.771113	50.920000
22.996290	-1.658485	50.965000
23.077660	-1.240134	51.011000
23.098073	-1.176448	51.188000
23.172360	-1.130170	51.234000
23.192729	-0.941583	51.396000
23.213146	-0.892855	51.442000
23.234394	-0.864731	51.487000
23.255468	-0.853017	51.533000
23.276625	-0.851907	51.579000
23.298375	-0.867292	51.625000
23.318863	-0.890235	51.671000
23.339796	-0.910014	51.716000
23.360699	-0.922579	51.763000
23.381780	-0.929817	51.808000
23.403202	-0.929797	51.854000
23.424001	-0.928835	51.900000
23.445636	-0.926486	51.946000
23.467449	-0.924259	51.992000
23.488196	-0.915332	52.037000
23.508519	-0.899630	52.083000
23.581429	-0.851075	52.129000
23.602365	-0.834005	52.288000
23.676022	-0.813464	52.334000
23.697455	-0.656555	52.496000
23.718264	-0.612442	52.542000
23.738919	-0.574938	52.587000
23.760669	-0.540791	52.633000
23.782106	-0.507571	52.679000
23.802811	-0.504515	52.725000
23.823606	-0.512314	52.771000
23.844211	-0.513871	52.817000
23.865581	-0.510308	52.863000
23.886451	-0.499249	52.909000
23.907673	-0.486970	52.954000
23.929037	-0.481959	53.000000
23.949499	-0.485856	53.046000
23.970450	-0.495554	53.091000
23.991299	-0.490111	53.137000
24.012243	-0.467342	53.183000
24.084730	-0.454016	53.229000
24.105522	-0.463452	53.388000
24.179337	-0.461390	53.434000
24.200549	-0.440269	53.596000
24.222829	-0.451576	53.642000
24.244152	-0.421358	53.688000
24.264721	-0.348871	53.733000
24.285756	-0.278628	53.779000
24.306116	-0.225108	53.825000
24.326765	-0.189824	53.871000
24.348006	-0.170440	53.917000
24.369212	-0.165624	53.962000
24.390562	-0.152371	54.008000
24.411938	-0.132744	54.054000
24.432236	-0.119454	54.100000
24.453137	-0.119117	54.146000
24.474460	-0.136657	54.191000
24.494708	-0.168735	54.237000
24.516210	-0.208531	54.283000
24.590171	-0.235305	54.328000
24.611018	-0.173338	54.488000
24.684745	-0.079335	54.534000
24.706568	0.285259	54.696000
24.726773	0.343416	54.742000
24.748045	0.358978	54.788000
24.768491	0.324061	54.833000
24.789478	0.255644	54.879000
24.810550	0.180364	54.925000
24.831533	0.136513	54.970000
24.852938	0.124534	55.016000
24.873604	0.123077	55.062000
24.894040	0.152420	55.107000
24.914960	0.229627	55.154000
24.936240	0.332062	55.199000
24.956539	0.435590	55.245000
24.978189	0.516542	55.291000
24.999770	0.575061	55.336000
25.020706	0.639799	55.382000
25.286102	0.588272	55.428000
25.307758	0.548191	56.008000
25.328565	0.558091	56.054000
25.349248	0.576511	56.100000
25.370491	0.586116	56.146000
25.391058	0.591538	56.192000
25.412608	0.603622	56.237000
25.433300	0.622349	56.283000
25.454813	0.644655	56.329000
25.476000	0.656255	56.375000
25.496832	0.663358	56.421000
25.517839	0.679199	56.467000
25.597966	0.599780	56.513000
25.619212	0.550032	56.688000
25.692910	0.514818	56.734000
25.713903	0.445551	56.896000
25.734474	0.425394	56.941000
25.756333	0.402025	56.988000
25.777543	0.362939	57.033000
25.798369	0.317776	57.079000
25.818884	0.285582	57.125000
25.839635	0.277596	57.170000
25.860874	0.290024	57.216000
25.881898	0.323890	57.262000
25.902770	0.373923	57.308000
25.924349	0.422283	57.354000
25.945289	0.466010	57.399000
25.966117	0.504575	57.445000
25.986881	0.535252	57.491000
26.007536	0.557198	57.537000
26.027990	0.570296	57.583000
26.101420	0.568362	57.628000
26.122187	0.535292	57.788000
26.196203	0.493834	57.834000
26.217754	0.422994	57.996000
26.239736	0.423508	58.042000
26.260675	0.420130	58.088000
26.281302	0.410509	58.133000
26.302216	0.395195	58.179000
26.322923	0.379917	58.225000
26.344150	0.368707	58.271000
26.364915	0.369659	58.316000
26.386163	0.388037	58.362000
26.408084	0.418196	58.408000
26.428822	0.448252	58.454000
26.449377	0.473147	58.500000
26.470076	0.491990	58.546000
26.490657	0.500533	58.592000
26.511471	0.500594	58.637000
26.533263	0.485235	58.683000
26.606229	0.436035	58.729000
26.627259	0.451666	58.888000
26.702101	0.468168	58.934000
26.722705	0.583537	59.096000
26.743314	0.566505	59.142000
26.764082	0.599124	59.187000
26.784649	0.648912	59.233000
26.804987	0.672773	59.278000
26.826881	0.662339	59.324000
26.847943	0.637831	59.370000
26.869084	0.607373	59.416000
26.890110	0.579393	59.462000
26.911328	0.554639	59.508000
26.932417	0.532404	59.554000
26.952932	0.508321	59.600000
26.973617	0.474952	59.646000
26.995383	0.418237	59.691000
27.016520	0.340018	59.737000
27.037021	0.274971	59.783000
27.110314	0.231968	59.829000
27.130779	0.209959	59.988000
27.205055	0.178814	60.034000
27.307898	0.160056	60.196000
27.328770	-0.106321	60.419000
27.349711	-0.171522	60.465000
27.371040	-0.230853	60.511000
27.391573	-0.271255	60.557000
27.412871	-0.279244	60.603000
27.434210	-0.280209	60.648000
27.455007	-0.283494	60.694000
27.475391	-0.296053	60.740000
27.496006	-0.319755	60.785000
27.517347	-0.352154	60.832000
27.537819	-0.391656	60.877000
27.807426	-0.275959	60.923000
27.827931	-0.020891	61.508000
27.848869	0.007952	61.554000
27.870200	0.029263	61.600000
27.890152	0.037142	61.646000
27.911128	0.027504	61.692000
27.932907	0.009035	61.737000
27.953865	-0.010241	61.783000
27.974547	-0.019187	61.829000
27.995703	-0.004781	61.875000
28.016431	0.024771	61.921000
28.037463	0.051063	61.967000
28.118376	0.063151	62.013000
28.139374	0.031057	62.189000
28.213289	-0.003944	62.234000
28.234874	-0.130928	62.396000
28.255884	-0.167488	62.442000
28.276647	-0.198860	62.487000
28.298349	-0.227520	62.533000
28.319356	-0.261138	62.579000
28.339747	-0.295225	62.625000
28.360604	-0.327452	62.671000
28.381092	-0.351200	62.717000
28.403516	-0.362673	62.763000
28.424984	-0.384318	62.808000
28.445543	-0.420446	62.854000
28.466150	-0.464464	62.900000
28.486534	-0.510732	62.946000
28.507352	-0.559417	62.992000
28.528313	-0.608213	63.038000
28.549569	-0.644410	63.084000
28.622641	-0.498270	63.129000
28.643872	-0.400698	63.289000
28.718909	-0.311891	63.335000
28.739704	-0.013053	63.496000
28.760676	0.081951	63.542000
28.781239	0.176845	63.588000
28.802399	0.264618	63.633000
28.823091	0.344591	63.679000
28.843634	0.416118	63.725000
28.865167	0.480703	63.771000
28.885936	0.540604	63.816000
28.906982	0.593910	63.862000
28.927903	0.637841	63.907000
28.948256	0.670455	63.954000
28.968959	0.685868	63.999000
28.990252	0.686377	64.045000
29.011591	0.679381	64.091000
29.033350	0.659243	64.137000
29.053833	0.623747	64.183000
29.127563	0.300407	64.228000
29.148306	0.188678	64.389000
29.222796	0.106635	64.434000
29.243404	0.058382	64.596000
29.264033	0.115990	64.642000
29.284864	0.174241	64.688000
29.305779	0.203927	64.733000
29.327842	0.202474	64.779000
29.348543	0.173772	64.825000
29.369797	0.125749	64.871000
29.390487	0.082043	64.917000
29.410981	0.054647	64.963000
29.432056	0.037201	65.008000
29.452498	0.007407	65.054000
29.473931	-0.019757	65.100000
29.495374	-0.025588	65.146000
29.516411	-0.032449	65.191000
29.537080	-0.033543	65.237000
29.557664	-0.034161	65.283000
29.631231	-0.142164	65.329000
29.651523	-0.176186	65.488000
29.725814	-0.124805	65.535000
29.746901	0.059112	65.696000
29.767608	0.070559	65.742000
29.788834	0.074642	65.788000
29.810276	0.087773	65.834000
29.831671	0.105278	65.880000
29.852624	0.121565	65.925000
29.873753	0.130618	65.971000
29.894095	0.126579	66.017000
29.915012	0.082596	66.063000
29.936592	-0.001501	66.108000
29.957294	-0.099133	66.154000
29.978027	-0.183091	66.200000
29.999547	-0.242705	66.245000
30.019055	-0.283596	66.291000
30.040317	-0.314997	66.337000
30.061441	-0.337940	66.383000
30.327281	-0.020271	66.429000
30.348095	-0.193808	67.009000
30.368658	-0.207048	67.054000
30.390475	-0.188961	67.100000
30.411785	-0.145945	67.146000
30.432803	-0.101435	67.192000
30.453683	-0.062690	67.237000
30.473772	-0.045044	67.283000
30.494913	-0.048567	67.329000
30.515683	-0.066294	67.374000
30.536834	-0.088855	67.420000
30.558676	-0.098314	67.466000
30.639736	-0.044882	67.511000
30.660923	-0.041409	67.689000
30.734604	-0.028330	67.735000
30.755877	0.127085	67.896000
30.776921	0.150078	67.942000
30.797472	0.161940	67.988000
30.818617	0.169293	68.034000
30.839256	0.177850	68.080000
30.860002	0.196391	68.126000
30.881999	0.236107	68.172000
30.902605	0.296991	68.218000
30.923767	0.368832	68.263000
30.944600	0.437980	68.309000
30.965267	0.494469	68.355000
30.986274	0.540455	68.400000
31.007340	0.578569	68.446000
31.028607	0.604222	68.492000
31.049973	0.614521	68.538000
31.070866	0.611814	68.584000
31.143873	0.553695	68.630000
31.164320	0.532792	68.789000
31.238377	0.512006	68.835000
31.259223	0.405937	68.996000
31.279492	0.332527	69.042000
31.300738	0.250191	69.088000
31.321737	0.179238	69.133000
31.343191	0.129604	69.179000
31.364173	0.106257	69.225000
31.385980	0.102321	69.271000
31.406561	0.118612	69.317000
31.426772	0.151864	69.363000
31.447861	0.183791	69.409000
31.468576	0.205841	69.455000
31.489932	0.215891	69.500000
31.511664	0.211459	69.546000
31.532692	0.192762	69.592000
31.553267	0.155291	69.638000
31.573633	0.106534	69.683000
31.646644	-0.021607	69.729000
31.667715	-0.037585	69.889000
31.741957	-0.043629	69.935000
31.762402	0.084169	70.096000
31.783711	0.148941	70.142000
31.804754	0.191535	70.188000
31.826212	0.215627	70.234000
31.848140	0.230287	70.280000
31.868557	0.228899	70.325000
31.889276	0.216395	70.371000
31.910347	0.238863	70.417000
31.931342	0.286904	70.463000
31.952339	0.321911	70.509000
31.973548	0.329271	70.554000
31.994201	0.319468	70.600000
32.014914	0.326535	70.646000
32.035751	0.348478	70.691000
32.056552	0.372260	70.737000
32.078175	0.390941	70.783000
32.150840	0.486777	70.829000
32.254165	0.582239	70.989000
32.275317	0.564021	71.212000
32.297269	0.547137	71.258000
32.317626	0.534975	71.304000
32.338241	0.532771	71.350000
32.358798	0.531239	71.396000
32.380150	0.519194	71.441000
32.401046	0.492019	71.487000
32.422106	0.461952	71.533000
32.444000	0.432561	71.579000
32.464119	0.394887	71.625000
32.484934	0.345483	71.671000
32.506570	0.290999	71.717000
32.526716	0.235945	71.762000
32.547876	0.191727	71.808000
32.569405	0.171808	71.853000
32.590189	0.147301	71.900000
32.847723	0.097824	71.945000
32.869322	0.458246	72.509000
32.890628	0.519474	72.554000
32.911615	0.553322	72.600000
32.932091	0.555347	72.646000
32.952898	0.561472	72.692000
32.973717	0.581238	72.738000
32.994646	0.593026	72.783000
33.016329	0.610435	72.829000
33.037701	0.638214	72.875000
33.058603	0.660571	72.920000
33.079529	0.666219	72.966000
33.159695	0.681884	73.012000
33.180282	0.730024	73.189000
33.255196	0.760887	73.235000
33.276260	0.709676	73.396000
33.296733	0.719954	73.442000
33.317693	0.730580	73.488000
33.339046	0.749701	73.533000
33.360494	0.779704	73.580000
33.381916	0.810100	73.626000
33.402857	0.825600	73.671000
33.423383	0.822157	73.717000
33.444655	0.806971	73.763000
33.465289	0.795382	73.809000
33.485619	0.791515	73.855000
33.507390	0.797141	73.900000
33.527840	0.815060	73.946000
33.549158	0.844230	73.991000
33.569730	0.877040	74.037000
33.590694	0.911139	74.083000
33.663272	1.046337	74.129000
33.684705	1.082575	74.289000
33.758950	1.120097	74.335000
33.779438	1.234018	74.496000
33.800910	1.249105	74.542000
33.822320	1.257009	74.588000
33.843810	1.271581	74.634000
33.864479	1.290705	74.680000
33.885290	1.309799	74.725000
33.906039	1.338530	74.771000
33.926442	1.354341	74.817000
33.947783	1.337738	74.863000
33.969980	1.305152	74.908000
33.990999	1.279576	74.954000
34.011586	1.268522	75.000000
34.032351	1.262639	75.046000
34.052950	1.253203	75.092000
34.073745	1.224119	75.137000
34.094625	1.167183	75.183000
34.168087	0.806657	75.229000
34.189666	0.700862	75.389000
34.262951	0.603449	75.435000
34.284253	0.351107	75.596000
34.305947	0.294769	75.642000
34.327169	0.239216	75.688000
34.347407	0.183932	75.734000
34.368225	0.134403	75.780000
34.389174	0.093331	75.826000
34.410477	0.062614	75.872000
34.431410	0.042750	75.917000
34.452644	0.033244	75.963000
34.473792	0.035805	76.009000
34.494641	0.050840	76.055000
34.515252	0.077011	76.101000
34.536055	0.111584	76.147000
34.557096	0.155028	76.192000
34.577726	0.215199	76.238000
34.599021	0.290553	76.284000
34.672629	0.544808	76.330000
34.693708	0.614135	76.489000
34.768030	0.669076	76.535000
34.789271	0.680879	76.697000
34.809698	0.675477	76.742000
34.830228	0.678678	76.788000
34.851096	0.693654	76.834000
34.872057	0.720645	76.879000
34.893079	0.751447	76.925000
34.915049	0.770487	76.971000
34.935276	0.755572	77.016000
34.956098	0.694437	77.062000
34.976794	0.627794	77.108000
34.997842	0.586397	77.154000
35.018657	0.559863	77.199000
35.039955	0.557440	77.245000
35.061108	0.559073	77.290000
35.082222	0.548190	77.336000
35.102660	0.520125	77.382000
35.369441	0.012836	77.428000
35.390098	-0.016777	78.009000
35.410648	0.000950	78.055000
35.431750	0.015920	78.101000
35.452449	0.027605	78.146000
35.473548	0.036768	78.192000
35.494440	0.060105	78.238000
35.516038	0.117487	78.284000
35.536518	0.196617	78.330000
35.557859	0.267152	78.375000
35.578689	0.327469	78.421000
35.599119	0.393858	78.467000
35.680541	0.627043	78.513000
35.701174	0.653715	78.689000
35.776046	0.673155	78.735000
35.796741	0.754415	78.896000
35.817721	0.767101	78.942000
35.839600	0.768856	78.988000
35.860737	0.769675	79.033000
35.880833	0.778187	79.079000
35.901705	0.783736	79.125000
35.922884	0.785618	79.171000
35.943345	0.784009	79.216000
35.964510	0.773527	79.262000
35.985900	0.743365	79.308000
36.006849	0.691605	79.354000
36.027852	0.630348	79.400000
36.048889	0.572839	79.445000
36.069938	0.517937	79.492000
36.090718	0.447899	79.537000
36.111532	0.365752	79.583000
36.184848	0.106645	79.629000
36.206070	0.049646	79.789000
36.279485	0.000027	79.835000
36.301172	-0.068624	79.997000
36.322655	-0.065261	80.042000
36.342793	-0.056270	80.088000
36.364042	-0.043930	80.134000
36.384418	-0.027115	80.180000
36.405256	-0.007524	80.226000
36.426596	0.013350	80.271000
36.448187	0.033919	80.317000
36.469313	0.047176	80.363000
36.490446	0.065489	80.409000
36.510519	0.101377	80.455000
36.531902	0.148173	80.501000
36.553208	0.200953	80.546000
36.573900	0.250928	80.592000
36.595218	0.297449	80.638000
36.616750	0.342340	80.683000
36.689728	0.478373	80.729000
36.710373	0.522373	80.889000
36.785214	0.569159	80.935000
36.805932	0.698908	81.097000
36.826482	0.713780	81.142000
36.847266	0.713881	81.188000
36.867880	0.704593	81.234000
36.889336	0.688516	81.280000
36.910570	0.670550	81.326000
36.931457	0.649652	81.371000
36.952498	0.628724	81.417000
36.973547	0.611753	81.463000
36.994158	0.596882	81.509000
37.014780	0.580476	81.555000
37.035622	0.566585	81.600000
37.056455	0.556926	81.646000
37.078250	0.553241	81.692000
37.099379	0.557007	81.738000
37.120194	0.568084	81.784000
37.193102	0.606044	81.830000
37.214216	0.597094	81.989000
37.287639	0.577669	82.035000
37.308868	0.474130	82.197000
37.329767	0.442258	82.242000
37.350482	0.408759	82.288000
37.371946	0.375299	82.334000
37.393229	0.334333	82.380000
37.413821	0.292002	82.426000
37.434762	0.247309	82.472000
37.455407	0.203518	82.517000
37.477128	0.163746	82.563000
37.498316	0.128878	82.609000
37.518877	0.100995	82.655000
37.540394	0.082374	82.701000
37.561819	0.073751	82.747000
37.582795	0.075898	82.793000
37.603809	0.086225	82.839000
37.624267	0.104094	82.884000
37.889423	0.562117	82.930000
37.910157	0.685493	83.509000
37.931251	0.726506	83.555000
37.952024	0.750948	83.601000
37.973230	0.763178	83.646000
37.994244	0.765793	83.692000
38.016035	0.759418	83.738000
38.036473	0.751386	83.784000
38.057560	0.740231	83.830000
38.078624	0.725299	83.876000
38.098858	0.710222	83.921000
38.120395	0.698005	83.967000
38.200906	0.723911	84.013000
38.221878	0.743052	84.189000
38.296012	0.752114	84.235000
38.317572	0.804297	84.397000
38.337941	0.853887	84.442000
38.358928	0.916627	84.488000
38.380065	0.993844	84.534000
38.400626	1.062500	84.580000
38.421398	1.106886	84.626000
38.442931	1.128704	84.671000
38.464153	1.135906	84.717000
38.485644	1.136391	84.763000
38.506527	1.137749	84.809000
38.527153	1.143660	84.854000
38.548083	1.148254	84.900000
38.568848	1.138713	84.946000
38.589608	1.105993	84.992000
38.611518	1.050526	85.038000
38.632559	0.983163	85.083000
38.706359	0.740639	85.129000
38.727069	0.683700	85.290000
38.800619	0.647390	85.335000
38.821503	0.736268	85.497000
38.842071	0.791655	85.543000
38.862982	0.853969	85.588000
38.884622	0.898819	85.634000
38.905621	0.924898	85.680000
38.927000	0.935842	85.726000
38.948403	0.933322	85.772000
38.969017	0.916270	85.818000
38.989294	0.886434	85.863000
39.010185	0.851256	85.909000
39.031042	0.814121	85.955000
39.051622	0.782572	86.001000
39.073086	0.760225	86.047000
39.094534	0.756505	86.093000
39.115364	0.775687	86.139000
39.136302	0.805270	86.185000
39.209156	0.915705	86.230000
39.230689	0.897351	86.390000
39.304500	0.869992	86.435000
39.325507	0.823678	86.597000
39.346413	0.830076	86.643000
39.367470	0.830005	86.688000
39.388838	0.826381	86.734000
39.410382	0.821184	86.780000
39.431289	0.830711	86.826000
39.452084	0.854290	86.872000
39.472491	0.883117	86.918000
39.494255	0.912686	86.963000
39.514762	0.934638	87.009000
39.535484	0.939497	87.055000
39.556979	0.915826	87.101000
39.578243	0.890871	87.147000
39.599553	0.923316	87.192000
39.620087	0.994347	87.238000
39.640648	1.062338	87.284000
39.713126	1.150383	87.330000
39.734278	1.187864	87.490000
39.808493	1.190756	87.535000
39.829891	1.152705	87.697000
39.851013	1.100283	87.743000
39.872292	1.043782	87.788000
39.893621	0.997883	87.834000
39.914052	0.971820	87.880000
39.934670	0.964930	87.926000
39.955481	0.974487	87.971000
39.976315	0.992518	88.017000
39.997233	1.018902	88.063000
40.018693	1.054671	88.109000
40.040168	1.097861	88.155000
40.061163	1.156436	88.201000
40.081916	1.226214	88.247000
40.102189	1.303134	88.292000
40.123307	1.385436	88.338000
40.144406	1.467276	88.384000
40.410165	1.632791	88.430000
40.431056	1.555240	89.009000
40.451705	1.556437	89.055000
40.473772	1.564781	89.101000
40.494425	1.568320	89.147000
40.515482	1.549208	89.192000
40.536416	1.507463	89.238000
40.556984	1.470598	89.283000
40.577787	1.457004	89.330000
40.598498	1.462531	89.376000
40.620407	1.468705	89.421000
40.641683	1.472011	89.467000
40.722905	1.514898	89.513000
40.743592	1.530390	89.690000
40.817073	1.554227	89.736000
40.838283	1.565347	89.897000
40.858806	1.574413	89.943000
40.879954	1.585756	89.989000
40.900807	1.597598	90.034000
40.921334	1.604746	90.080000
40.943009	1.602872	90.126000
40.964522	1.598219	90.172000
40.985506	1.597699	90.217000
41.006217	1.602731	90.263000
41.026609	1.612433	90.309000
41.047596	1.630429	90.355000
41.068795	1.657362	90.401000
41.089770	1.690181	90.447000
41.110608	1.718984	90.493000
41.131645	1.731953	90.538000
41.152175	1.728399	90.584000
41.225737	1.648421	90.629000
41.246732	1.600995	90.790000
41.320739	1.545313	90.835000
41.342164	1.473072	90.997000
41.363036	1.493178	91.043000
41.383451	1.528805	91.089000
41.404927	1.561688	91.135000
41.426755	1.587876	91.180000
41.447577	1.618111	91.226000
41.468158	1.645308	91.272000
41.488630	1.658037	91.318000
41.509306	1.655668	91.363000
41.530094	1.636865	91.409000
41.551481	1.612706	91.455000
41.573044	1.585766	91.501000
41.594366	1.551476	91.547000
41.614865	1.515868	91.593000
41.635430	1.481522	91.638000
41.656275	1.454965	91.684000
41.728969	1.453951	91.730000
41.750229	1.439756	91.890000
41.825327	1.398395	91.936000
41.845765	1.147400	92.097000
41.866967	1.093897	92.143000
41.888700	1.051284	92.189000
41.909614	1.018953	92.234000
41.929668	1.001320	92.280000
41.950467	0.998453	92.326000
41.970898	1.006247	92.372000
41.992411	1.020991	92.418000
42.013406	1.041340	92.463000
42.034789	1.065519	92.509000
42.056849	1.089355	92.555000
42.077221	1.108598	92.601000
42.097502	1.120677	92.647000
42.118989	1.129859	92.693000
42.139964	1.140465	92.739000
42.160475	1.148587	92.784000
42.233825	1.077931	92.830000
42.255328	1.058129	92.990000
42.329262	1.046772	93.036000
42.350745	1.026801	93.197000
42.371997	1.026383	93.242000
42.392639	1.033808	93.289000
42.413618	1.040315	93.334000
42.433584	1.045620	93.380000
42.454667	1.047351	93.426000
42.475566	1.046887	93.472000
42.497591	1.039584	93.518000
42.518740	1.023182	93.564000
42.539746	1.005551	93.609000
42.560326	0.988944	93.655000
42.581225	0.973505	93.701000
42.601921	0.961508	93.747000
42.622996	0.953641	93.793000
42.644637	0.958369	93.838000
42.665348	0.988570	93.884000
42.930546	1.158319	93.930000
42.952136	1.417236	94.509000
42.973616	1.422984	94.555000
42.994199	1.413256	94.601000
43.014929	1.397045	94.647000
43.035310	1.375430	94.693000
43.056654	1.358343	94.739000
43.077480	1.359386	94.785000
43.098748	1.373530	94.830000
43.120404	1.382266	94.876000
43.140758	1.384696	94.922000
43.161753	1.384635	94.967000
43.243286	1.226761	95.013000
43.263516	1.206673	95.190000
43.337873	1.200832	95.236000
43.358660	1.045761	95.397000
43.379221	0.994046	95.443000
43.400282	0.952375	95.489000
43.421719	0.909122	95.534000
43.443328	0.854452	95.580000
43.463816	0.790174	95.626000
43.484327	0.723553	95.672000
43.504784	0.664972	95.717000
43.525887	0.618819	95.763000
43.546859	0.592925	95.809000
43.568515	0.593090	95.855000
43.590182	0.611934	95.900000
43.610724	0.634544	95.946000
43.631350	0.657092	95.992000
43.652272	0.688087	96.038000
43.673244	0.726374	96.084000
43.746279	0.826240	96.130000
43.767532	0.898299	96.290000
43.841692	0.960232	96.336000
43.862130	0.954400	96.497000
43.883744	0.903334	96.543000
43.905223	0.839805	96.589000
43.925899	0.781407	96.634000
43.946552	0.737304	96.680000
43.966979	0.707829	96.726000
43.988116	0.686487	96.772000
44.008750	0.670954	96.817000
44.030194	0.658067	96.863000
44.051823	0.644765	96.909000
44.072784	0.629667	96.955000
44.093487	0.609340	97.000000
44.114359	0.587351	97.046000
44.135500	0.563525	97.092000
44.155669	0.536759	97.138000
44.177398	0.510889	97.183000
44.250406	0.402159	97.229000
44.272258	0.364819	97.390000
44.345835	0.331522	97.436000
44.367291	0.356549	97.597000
44.387863	0.399625	97.643000
44.408693	0.459124	97.689000
44.428977	0.530886	97.735000
44.449865	0.611278	97.780000
44.470814	0.678894	97.826000
44.492312	0.735486	97.872000
44.514387	0.798174	97.918000
44.535766	0.839451	97.964000
44.556596	0.877961	98.010000
44.577118	0.946594	98.056000
44.597814	0.978354	98.101000
44.618647	0.994267	98.147000
44.639746	1.010547	98.193000
44.661360	1.030764	98.239000
44.682282	1.055201	98.284000
44.755566	1.179978	98.330000
44.776412	1.258641	98.490000
44.849988	1.334194	98.536000
44.872032	1.583610	98.697000
44.892194	1.652013	98.743000
44.913139	1.715665	98.789000
44.933957	1.759095	98.834000
44.954975	1.765526	98.880000
44.976239	1.739352	98.926000
44.997469	1.689525	98.972000
45.017964	1.620177	99.018000
45.038275	1.536817	99.063000
45.058898	1.449311	99.109000
45.080388	1.372538	99.155000
45.100573	1.304138	99.200000
45.122240	1.235963	99.247000
45.143327	1.170458	99.292000
45.164088	1.113397	99.338000
45.184699	1.076562	99.384000
45.450996	1.209767	99.430000
45.471930	1.267588	100.009000
45.492809	1.261203	100.055000
45.513601	1.230902	100.101000
45.534450	1.191352	100.147000
45.555480	1.160928	100.193000
45.577320	1.126567	100.239000
45.598580	1.086760	100.285000
45.619183	1.047048	100.330000
45.640067	1.022016	100.376000
45.660708	1.008590	100.422000
45.681392	0.988631	100.468000
45.762211	0.820891	100.513000
45.783052	0.795724	100.690000
45.856832	0.784857	100.736000
45.877962	0.808724	100.897000
45.899568	0.845303	100.943000
45.921250	0.896288	100.989000
45.942069	0.949386	101.035000
45.962818	1.020452	101.080000
45.983836	1.099364	101.126000
46.004643	1.170438	101.172000
46.025776	1.233403	101.218000
46.047021	1.306205	101.264000
46.068546	1.390336	101.309000
46.089115	1.465550	101.355000
46.109975	1.516023	101.401000
46.130617	1.548355	101.447000
46.150413	1.575039	101.492000
46.171504	1.608611	101.538000
46.192703	1.640481	101.584000
46.266729	1.702950	101.630000
46.288489	1.727426	101.790000
46.362239	1.760069	101.836000
46.383472	1.903370	101.997000
46.404621	1.959638	102.043000
46.425085	2.019153	102.089000
46.445785	2.068803	102.134000
46.467129	2.116740	102.181000
46.487713	2.166970	102.226000
46.508777	2.205207	102.272000
46.530537	2.220515	102.318000
46.551083	2.212102	102.364000
46.572001	2.192752	102.409000
46.592850	2.182101	102.455000
46.614102	2.180059	102.501000
46.634759	2.180352	102.547000
46.655263	2.169571	102.593000
46.676868	2.141444	102.639000
46.697902	2.094865	102.684000
46.771509	1.895077	102.730000
46.792189	1.847198	102.890000
46.866423	1.798014	102.936000
46.887384	1.645928	103.097000
46.908290	1.630307	103.143000
46.929297	1.614205	103.189000
46.949766	1.610535	103.235000
46.970907	1.652987	103.281000
46.992747	1.682853	103.327000
47.013642	1.672574	103.372000
47.034610	1.640177	103.418000
47.055471	1.607950	103.464000
47.076124	1.596088	103.510000
47.096308	1.606875	103.555000
47.117415	1.622509	103.602000
47.138348	1.648754	103.647000
47.159781	1.691365	103.693000
47.180895	1.750219	103.739000
47.201672	1.825036	103.785000
47.274718	2.045750	103.830000
47.295809	2.063746	103.990000
47.369471	2.066573	104.036000
47.390773	1.977120	104.197000
47.411472	1.939160	104.243000
47.433009	1.910528	104.289000
47.454231	1.891780	104.335000
47.475606	1.878055	104.380000
47.495979	1.871585	104.426000
47.516666	1.875113	104.472000
47.537627	1.879524	104.517000
47.558011	1.881256	104.563000
47.579621	1.884340	104.609000
47.600404	1.887939	104.655000
47.621442	1.893547	104.700000
47.642556	1.909716	104.746000
47.663194	1.926994	104.792000
47.684281	1.952693	104.838000
47.705506	1.985262	104.883000
47.971066	1.784631	104.929000
47.992261	1.582797	105.510000
48.013014	1.577442	105.556000
48.034923	1.573701	105.602000
48.056298	1.574877	105.647000
48.077370	1.598986	105.693000
48.098208	1.650889	105.739000
48.118696	1.726121	105.785000
48.139852	1.796981	105.830000
48.160421	1.855652	105.876000
48.181454	1.918393	105.922000
48.202657	1.974424	105.968000
48.284009	1.985666	106.013000
48.305231	1.974198	106.190000
48.378712	1.980305	106.236000
48.400483	1.875041	106.398000
48.421343	1.853161	106.443000
48.441897	1.848999	106.489000
48.462573	1.840859	106.535000
48.483552	1.812550	106.581000
48.504325	1.782362	106.627000
48.525316	1.767044	106.672000
48.546637	1.771833	106.718000
48.567924	1.808078	106.764000
48.588451	1.860261	106.810000
48.609473	1.907009	106.855000
48.630499	1.939483	106.901000
48.651148	1.954197	106.947000
48.671774	1.959053	106.993000
48.693614	1.963757	107.039000
48.714629	1.975424	107.084000
48.787502	1.785105	107.130000
48.809039	1.701482	107.290000
48.883326	1.627682	107.336000
48.903861	1.563277	107.498000
48.924617	1.561586	107.543000
48.945893	1.546791	107.589000
48.966485	1.511102	107.635000
48.987918	1.459720	107.681000
49.009181	1.399031	107.726000
49.029946	1.340787	107.772000
49.050572	1.286330	107.818000
49.071187	1.235555	107.864000
49.092001	1.190716	107.910000
49.113085	1.151822	107.955000
49.133550	1.122014	108.001000
49.155171	1.098622	108.047000
49.176754	1.085341	108.093000
49.197361	1.077472	108.139000
49.218210	1.079693	108.184000
49.291837	1.188060	108.230000
49.312547	1.235303	108.390000
49.386531	1.285559	108.436000
49.407692	1.529608	108.598000
49.428310	1.607027	108.643000
49.449563	1.664020	108.689000
49.470892	1.690771	108.735000
49.491591	1.690710	108.781000
49.513028	1.670805	108.827000
49.533404	1.643620	108.872000
49.553915	1.621080	108.918000
49.574768	1.612524	108.964000
49.595825	1.628157	109.010000
49.617296	1.661461	109.055000
49.638645	1.695172	109.101000
49.659163	1.730910	109.147000
49.680416	1.778270	109.193000
49.701223	1.840617	109.239000
49.722214	1.924041	109.284000
49.796513	2.180785	109.330000
49.817312	2.208141	109.490000
49.891188	2.229060	109.536000
49.911807	2.213449	109.698000
49.933132	2.160507	109.744000
49.954419	2.095696	109.790000
49.975292	2.030844	109.835000
49.996148	1.974858	109.881000
50.016763	1.929720	109.927000
50.038196	1.890109	109.973000
50.058565	1.848177	110.018000
50.080152	1.790796	110.064000
50.101316	1.729829	110.110000
50.122096	1.679722	110.156000
50.143025	1.647194	110.201000
50.163840	1.633053	110.247000
50.183894	1.645429	110.293000
50.205607	1.684470	110.339000
50.226859	1.735516	110.385000
50.491401	1.993939	110.430000
50.512853	2.164051	111.010000
50.534117	2.134680	111.056000
50.555723	2.083372	111.102000
50.576418	2.035548	111.148000
50.597294	1.984793	111.193000
50.618155	1.931961	111.239000
50.639411	1.908236	111.285000
50.660130	1.910406	111.331000
50.681701	1.918649	111.376000
50.703065	1.940820	111.422000
50.723491	1.957134	111.468000
50.804406	1.997114	111.514000
50.825512	2.004818	111.690000
50.899538	1.997488	111.736000
50.920272	1.979816	111.898000
50.941559	1.951122	111.943000
50.962585	1.911370	111.989000
50.983426	1.875345	112.035000
51.004275	1.856499	112.081000
51.026046	1.849301	112.127000
51.046580	1.851066	112.173000
51.067595	1.849578	112.218000
51.087964	1.845808	112.264000
51.108590	1.840979	112.310000
51.129358	1.841549	112.355000
51.150499	1.831050	112.401000
51.172213	1.821806	112.447000
51.192743	1.820268	112.492000
51.214080	1.828560	112.538000
51.234045	1.844921	112.584000
51.307983	2.006432	112.629000
51.329051	2.061443	112.791000
51.402920	2.102243	112.836000
51.423512	2.134377	112.998000
51.444753	2.125470	113.044000
51.465636	2.135017	113.090000
51.487012	2.180079	113.135000
51.508164	2.221362	113.181000
51.528967	2.259267	113.227000
51.549908	2.279974	113.273000
51.571172	2.282596	113.319000
51.592313	2.284470	113.364000
51.613416	2.301806	113.410000
51.634250	2.321195	113.456000
51.655840	2.323467	113.502000
51.677703	2.324406	113.548000
51.697884	2.353850	113.594000
51.718034	2.404157	113.639000
51.739482	2.446559	113.685000
51.813086	2.527794	113.731000
51.833082	2.564228	113.891000
51.907039	2.572006	113.936000
51.928011	2.367292	114.098000
51.949502	2.312130	114.144000
51.970816	2.277585	114.190000
51.992241	2.270771	114.236000
52.012710	2.278149	114.281000
52.034016	2.290585	114.327000
52.054465	2.318904	114.373000
52.075503	2.369130	114.418000
52.096901	2.425288	114.464000
52.117950	2.492530	114.510000
52.138672	2.549902	114.555000
52.158984	2.588333	114.601000
52.179471	2.618131	114.647000
52.200586	2.645911	114.692000
52.221323	2.667111	114.738000
52.242814	2.665553	114.784000
52.316610	2.368998	114.829000
52.337797	2.224755	114.991000
52.411520	2.085095	115.036000
52.432764	1.718065	115.198000
52.453894	1.640813	115.243000
52.474670	1.574423	115.289000
52.495584	1.518416	115.335000
52.516380	1.471795	115.381000
52.536802	1.433592	115.427000
52.558523	1.403629	115.473000
52.579979	1.384393	115.519000
52.600909	1.376695	115.565000
52.621585	1.381062	115.610000
52.642108	1.402020	115.656000
52.663164	1.448912	115.702000
52.684063	1.516256	115.748000
52.705343	1.586608	115.793000
52.726407	1.658414	115.839000
52.747041	1.724724	115.885000
53.012961	2.361790	115.930000
53.034106	2.709825	116.510000
53.054990	2.728819	116.555000
53.075474	2.738500	116.601000
53.096154	2.737577	116.647000
53.116769	2.729374	116.693000
53.137706	2.711473	116.739000
53.159327	2.701099	116.784000
53.180418	2.704844	116.830000
53.201106	2.724114	116.876000
53.221755	2.747259	116.922000
53.242174	2.767802	116.968000
53.324660	2.628071	117.013000
53.345471	2.583442	117.191000
53.419128	2.548456	117.237000
53.440142	2.566637	117.398000
53.461345	2.586321	117.444000
53.482063	2.597718	117.490000
53.503949	2.596010	117.535000
53.524952	2.582767	117.581000
53.546220	2.566255	117.627000
53.566739	2.594084	117.673000
53.587215	2.670320	117.719000
53.608395	2.747939	117.764000
53.629221	2.789195	117.810000
53.651099	2.800093	117.856000
53.672367	2.789882	117.902000
53.693078	2.754315	117.947000
53.713512	2.714511	117.993000
53.734457	2.702066	118.039000
53.755940	2.711130	118.085000
53.828414	2.713115	118.131000
53.849328	2.709642	118.291000
53.922844	2.705765	118.337000
53.944096	2.639836	118.498000
53.965529	2.618747	118.544000
53.986843	2.603741	118.590000
54.008111	2.593983	118.636000
54.028799	2.589234	118.682000
54.049790	2.596972	118.727000
54.070777	2.620691	118.774000
54.091695	2.651924	118.819000
54.112625	2.677932	118.865000
54.134200	2.695660	118.911000
54.155257	2.705755	118.957000
54.175695	2.708569	119.002000
54.196206	2.705489	119.048000
54.217136	2.703982	119.094000
54.238196	2.704793	119.140000
54.260109	2.729212	119.186000
54.332360	2.774340	119.232000
54.353770	2.771179	119.391000
54.428561	2.779024	119.437000
54.449399	2.810282	119.598000
54.470378	2.832406	119.643000
54.491005	2.849538	119.689000
54.511704	2.860562	119.735000
54.532372	2.867271	119.781000
54.553752	2.871097	119.827000
54.574939	2.864505	119.872000
54.595976	2.845940	119.918000
54.616694	2.817564	119.964000
54.637309	2.785778	120.010000
54.657920	2.757348	120.055000
54.678796	2.731595	120.101000
54.700194	2.706724	120.147000
54.721193	2.686536	120.193000
54.742918	2.663959	120.239000
54.763679	2.633985	120.285000
54.837459	2.465886	120.331000
54.858458	2.409634	120.491000
54.932093	2.355696	120.537000
54.952692	2.130663	120.698000
54.973303	2.039808	120.744000
54.993749	1.949764	120.790000
55.014867	1.888892	120.835000
55.036403	1.867031	120.881000
55.057433	1.879523	120.927000
55.079650	1.920209	120.972000
55.099899	1.964170	121.018000
55.120318	2.009592	121.064000
55.141601	2.061988	121.110000
55.162427	2.118292	121.156000
55.183557	2.170634	121.201000
55.205182	2.233045	121.247000
55.225685	2.307934	121.293000
55.246285	2.378155	121.338000
55.267191	2.426730	121.384000
55.534134	2.587676	121.430000
55.554875	2.726385	122.010000
55.575352	2.759549	122.056000
55.595978	2.779684	122.102000
55.617357	2.785096	122.148000
55.638218	2.773612	122.194000
55.659823	2.744511	122.239000
55.680600	2.710574	122.285000
55.701264	2.682105	122.331000
55.722278	2.663939	122.377000
55.742882	2.662049	122.423000
55.764115	2.665562	122.469000
55.845118	2.735440	122.515000
55.866489	2.746823	122.691000
55.939605	2.756081	122.737000
55.961103	2.798367	122.898000
55.982801	2.832344	122.944000
56.003151	2.887703	122.990000
56.024549	2.951455	123.036000
56.044941	3.002389	123.081000
56.066313	3.035235	123.127000
56.086828	3.054550	123.173000
56.107988	3.047090	123.219000
56.129540	3.021594	123.265000
56.150201	3.006805	123.311000
56.170616	3.006805	123.357000
56.192110	3.012870	123.402000
56.212479	2.977464	123.448000
56.234016	2.902323	123.494000
56.254869	2.808912	123.540000
56.276194	2.716699	123.586000
56.349698	2.520248	123.632000
56.371461	2.507590	123.791000
56.444762	2.522043	123.837000
56.465684	2.601382	123.998000
56.486471	2.598630	124.044000
56.507808	2.591956	124.090000
56.527816	2.602985	124.135000
56.549299	2.623474	124.181000
56.570275	2.651458	124.227000
56.591093	2.683653	124.273000
56.612660	2.723049	124.319000
56.633363	2.765122	124.365000
56.653898	2.807514	124.411000
56.674893	2.846296	124.456000
56.695515	2.868527	124.502000
56.716737	2.867719	124.548000
56.738270	2.843914	124.594000
56.759414	2.799320	124.639000
56.780071	2.746122	124.685000
56.854328	2.547795	124.731000
56.874624	2.484346	124.891000
56.949154	2.418477	124.937000
56.969787	2.251987	125.098000
56.990479	2.221961	125.144000
57.011305	2.196152	125.190000
57.032342	2.174509	125.236000
57.053718	2.153530	125.281000
57.075358	2.126124	125.327000
57.095869	2.122570	125.373000
57.116138	2.137325	125.419000
57.136764	2.165004	125.465000
57.158566	2.191954	125.511000
57.179265	2.193451	125.557000
57.200295	2.167464	125.602000
57.222227	2.135873	125.648000
57.242623	2.125308	125.694000
57.263833	2.144705	125.740000
57.284413	2.181016	125.785000
57.356941	2.277826	125.831000
57.378720	2.293260	125.991000
57.483008	2.306237	126.037000
57.504057	2.164313	126.265000
57.524437	2.138894	126.311000
57.546108	2.117692	126.357000
57.566707	2.099369	126.403000
57.588156	2.084062	126.448000
57.609516	2.074367	126.494000
57.630296	2.064229	126.540000
57.650545	2.054648	126.586000
57.671829	2.048798	126.631000
57.692040	2.054284	126.677000
57.713688	2.083168	126.723000
57.735186	2.132108	126.769000
57.756339	2.181232	126.815000
57.776927	2.209162	126.860000
57.797703	2.217173	126.906000
58.053739	2.180089	126.952000
58.074572	2.382531	127.510000
58.095398	2.447249	127.556000
58.117004	2.507510	127.602000
58.138115	2.558642	127.648000
58.159467	2.604149	127.694000
58.180228	2.644382	127.740000
58.200950	2.679705	127.786000
58.222152	2.710439	127.831000
58.243109	2.747197	127.877000
58.264315	2.787519	127.923000
58.285222	2.825590	127.969000
58.366509	2.861005	128.015000
58.388123	2.854417	128.191000
58.460847	2.849497	128.237000
58.482172	2.841460	128.398000
58.502529	2.827012	128.444000
58.523290	2.811793	128.490000
58.544162	2.803131	128.536000
58.564950	2.800834	128.581000
58.586848	2.801966	128.627000
58.608707	2.804228	128.673000
58.629860	2.806630	128.719000
58.650263	2.825796	128.765000
58.671216	2.847502	128.811000
58.692230	2.856059	128.857000
58.712445	2.861626	128.903000
58.733390	2.872959	128.948000
58.754447	2.880555	128.994000
58.776737	2.882035	129.040000
58.797317	2.879592	129.086000
58.870302	2.886407	129.131000
58.891097	2.905821	129.291000
58.965438	2.929777	129.337000
58.985596	3.018429	129.498000
59.006725	3.048739	129.544000
59.027647	3.082625	129.590000
59.048869	3.120560	129.636000
59.070033	3.155492	129.681000
59.091397	3.175486	129.727000
59.112457	3.188646	129.772000
59.132826	3.197000	129.818000
59.153791	3.208155	129.864000
59.174428	3.225257	129.910000
59.195700	3.242688	129.956000
59.216361	3.252480	130.002000
59.238028	3.252052	130.047000
59.258566	3.231931	130.093000
59.280110	3.218039	130.139000
59.300660	3.269796	130.185000
59.374198	3.365532	130.230000
59.395151	3.369883	130.391000
59.469043	3.351211	130.437000
59.489969	3.009597	130.598000
59.511056	2.872939	130.644000
59.532358	2.789477	130.690000
59.553568	2.760987	130.736000
59.573845	2.762517	130.781000
59.594825	2.787337	130.827000
59.615263	2.817104	130.873000
59.636319	2.857896	130.919000
59.657664	2.887541	130.965000
59.678724	2.883514	131.010000
59.700530	2.869370	131.056000
59.721613	2.854842	131.102000
59.742113	2.838245	131.148000
59.762247	2.814005	131.194000
59.783530	2.782532	131.239000
59.804203	2.748049	131.285000
59.878533	2.715494	131.331000
59.899024	2.704853	131.491000
59.972855	2.703078	131.537000
59.993838	2.558567	131.698000
60.015721	2.482145	131.744000
60.035840	2.421344	131.790000
60.057265	2.402050	131.836000
60.077864	2.400753	131.882000
60.098518	2.396240	131.927000
60.119259	2.378608	131.973000
60.140750	2.363999	132.019000
60.161733	2.364222	132.064000
60.182870	2.374605	132.110000
60.203892	2.415878	132.156000
60.224684	2.492478	132.202000
60.245275	2.578582	132.248000
60.266101	2.659760	132.294000
60.286974	2.730104	132.339000
60.308795	2.787509	132.385000
60.573993	3.077845	132.431000
60.595683	3.255590	133.011000
60.617047	3.287774	133.056000
60.637739	3.294645	133.102000
60.658649	3.279011	133.148000
60.679429	3.255661	133.194000
60.700017	3.225145	133.240000
60.720755	3.196544	133.285000
60.741615	3.174491	133.331000
60.763236	3.158585	133.377000
60.784278	3.132263	133.423000
60.804596	3.084020	133.468000
60.887159	2.900262	133.514000
60.907178	2.882207	133.692000
60.981393	2.856543	133.737000
61.002480	2.764495	133.898000
61.023406	2.744783	133.944000
61.043955	2.734828	133.990000
61.064847	2.748811	134.035000
61.085934	2.770427	134.081000
61.107194	2.779957	134.127000
61.128051	2.785726	134.173000
61.148681	2.792561	134.219000
61.169495	2.815523	134.264000
61.190460	2.837270	134.310000
61.211040	2.854973	134.356000
61.232388	2.874482	134.402000
61.254328	2.893816	134.448000
61.274989	2.918697	134.493000
61.295508	2.951772	134.539000
61.316169	2.995082	134.585000
61.389918	3.169059	134.631000
61.411152	3.150071	134.792000
61.484678	3.107357	134.838000
61.505685	3.044108	134.998000
61.526907	3.008060	135.044000
61.548271	2.956283	135.090000
61.569281	2.907788	135.136000
61.590141	2.863559	135.182000
61.610941	2.814720	135.227000
61.632116	2.762021	135.273000
61.652911	2.711602	135.319000
61.673154	2.684998	135.365000
61.694713	2.684927	135.410000
61.716154	2.687316	135.456000
61.737368	2.679387	135.502000
61.757414	2.659830	135.547000
61.778609	2.649199	135.593000
61.798467	2.660424	135.639000
61.820169	2.691600	135.685000
61.894433	2.676343	135.731000
61.915955	2.674217	135.891000
61.988901	2.683976	135.938000
62.010576	2.702241	136.098000
62.031272	2.708929	136.144000
62.052501	2.707977	136.190000
62.073227	2.682930	136.236000
62.094042	2.636865	136.282000
62.115463	2.578038	136.328000
62.136113	2.521452	136.373000
62.157261	2.472160	136.419000
62.178717	2.437128	136.465000
62.199689	2.414518	136.511000
62.220684	2.410212	136.556000
62.241948	2.428440	136.602000
62.262286	2.457763	136.648000
62.282540	2.488126	136.694000
62.304184	2.522767	136.740000
62.325675	2.557260	136.785000
62.399425	2.694484	136.831000
62.501680	2.811364	136.992000
62.522625	2.873018	137.215000
62.543601	2.920630	137.261000
62.563839	2.948914	137.306000
62.585214	2.968087	137.352000
62.605987	2.969852	137.397000
62.626586	2.964902	137.443000
62.648561	2.954035	137.489000
62.669171	2.945624	137.535000
62.689944	2.960859	137.580000
62.709986	2.972927	137.626000
62.730800	2.970547	137.672000
62.751354	2.947940	137.717000
62.773194	2.888858	137.763000
62.793893	2.806458	137.809000
62.816060	2.713879	137.855000
62.836525	2.621668	137.900000
63.095719	2.373556	137.946000
63.116387	2.562176	138.511000
63.137094	2.624114	138.557000
63.158304	2.653083	138.603000
63.179257	2.651389	138.648000
63.199964	2.631518	138.694000
63.220920	2.609955	138.740000
63.242446	2.596296	138.786000
63.263729	2.586224	138.832000
63.284985	2.564913	138.878000
63.305634	2.536393	138.924000
63.326437	2.506423	138.969000
63.407064	2.452555	139.015000
63.427452	2.446644	139.192000
63.501455	2.447941	139.238000
63.523118	2.518777	139.399000
63.544156	2.556263	139.444000
63.564740	2.590635	139.490000
63.586499	2.618050	139.536000
63.607813	2.639820	139.582000
63.628313	2.662407	139.628000
63.649127	2.696768	139.673000
63.669811	2.741537	139.720000
63.690341	2.792026	139.765000
63.711951	2.842324	139.811000
63.733092	2.882191	139.857000
63.753956	2.909727	139.903000
63.774732	2.924235	139.949000
63.795336	2.935626	139.994000
63.816116	2.960644	140.040000
63.837268	2.994164	140.086000
63.911417	3.054433	140.132000
63.932524	3.060234	140.292000
64.006277	3.067382	140.338000
64.027180	3.174890	140.499000
64.048797	3.229286	140.544000
64.069635	3.266599	140.590000
64.090446	3.281875	140.636000
64.110838	3.283081	140.682000
64.131318	3.270491	140.728000
64.152213	3.258335	140.774000
64.174253	3.266952	140.820000
64.195467	3.285983	140.865000
64.216570	3.311368	140.911000
64.237411	3.332782	140.957000
64.257891	3.337955	141.003000
64.278521	3.317456	141.048000
64.299386	3.284267	141.094000
64.320999	3.253333	141.140000
64.342786	3.222431	141.186000
64.416005	3.175985	141.231000
64.436877	3.153053	141.392000
64.509866	3.123972	141.438000
64.531295	3.063299	141.599000
64.551887	3.060437	141.645000
64.572894	3.056363	141.690000
64.594069	3.044927	141.736000
64.614185	3.034175	141.782000
64.636036	3.037971	141.828000
64.657527	3.052840	141.874000
64.678664	3.058732	141.919000
64.699425	3.049402	141.966000
64.719801	3.027028	142.011000
64.740401	3.003983	142.057000
64.762076	2.995489	142.103000
64.783021	2.981426	142.148000
64.804450	2.949872	142.194000
64.826025	2.967599	142.240000
64.846256	3.021851	142.286000
64.920178	3.183744	142.332000
64.941385	3.198261	142.492000
65.014262	3.194430	142.538000
65.035561	3.124300	142.699000
65.056729	3.113538	142.745000
65.077290	3.129664	142.791000
65.098281	3.165697	142.836000
65.120017	3.200725	142.882000
65.141523	3.226448	142.928000
65.161784	3.236615	142.974000
65.182630	3.254645	143.020000
65.202668	3.290727	143.066000
65.224044	3.348541	143.112000
65.244919	3.417360	143.157000
65.266533	3.478068	143.203000
65.288408	3.516296	143.249000
65.309215	3.520152	143.295000
65.329653	3.478037	143.340000
65.350836	3.400761	143.386000
65.615600	3.006710	143.432000
65.637221	3.013077	144.011000
65.658166	3.020894	144.057000
65.679119	3.023829	144.103000
65.700157	3.028092	144.149000
65.721424	3.049998	144.194000
65.742431	3.080452	144.240000
65.763706	3.113488	144.286000
65.784321	3.148505	144.332000
65.804813	3.181826	144.378000
65.825958	3.215283	144.423000
65.846895	3.246146	144.469000
65.928079	3.309617	144.515000
65.949293	3.300480	144.692000
66.022539	3.282677	144.738000
66.044498	3.233919	144.899000
66.065858	3.276665	144.945000
66.086496	3.304302	144.990000
66.106926	3.354552	145.036000
66.127249	3.417340	145.082000
66.147971	3.486339	145.128000
66.169347	3.546382	145.174000
66.190323	3.588812	145.219000
66.212305	3.608317	145.265000
66.233581	3.607347	145.311000
66.253773	3.604830	145.357000
66.274395	3.623486	145.402000
66.295586	3.648906	145.448000
66.316447	3.652889	145.494000
66.337530	3.631729	145.539000
66.359128	3.602052	145.585000
66.432636	3.515686	145.631000
66.453458	3.508247	145.792000
66.527457	3.484455	145.838000
66.548256	3.721964	145.999000
66.569225	3.801582	146.045000
66.589924	3.837100	146.090000
66.610654	3.867499	146.136000
66.631891	3.886188	146.182000
66.653458	3.882594	146.228000
66.674941	3.871944	146.274000
66.695817	3.856403	146.319000
66.716278	3.833698	146.365000
66.736593	3.807335	146.411000
66.757815	3.789964	146.457000
66.778568	3.784391	146.503000
66.800166	3.794373	146.548000
66.821764	3.817551	146.594000
66.842579	3.850410	146.640000
66.863224	3.883590	146.686000
66.936801	3.990458	146.731000
66.957493	4.024501	146.892000
67.031515	4.053011	146.938000
67.052122	3.912989	147.099000
67.072837	3.832552	147.145000
67.093451	3.742575	147.191000
67.115150	3.651865	147.237000
67.136317	3.569741	147.282000
67.157432	3.515575	147.328000
67.178223	3.520465	147.374000
67.198753	3.575684	147.420000
67.219575	3.637569	147.466000
67.240467	3.667296	147.512000
67.261350	3.666140	147.557000
67.283371	3.646473	147.603000
67.304047	3.633495	147.649000
67.324601	3.649360	147.695000
67.345838	3.690557	147.741000
67.366936	3.762806	147.786000
67.439860	3.886728	147.832000
67.461020	3.903483	147.992000
67.534543	3.924054	148.038000
67.555458	3.996269	148.199000
67.576641	4.012328	148.245000
67.598377	4.026954	148.290000
67.619422	4.034597	148.336000
67.640321	4.022703	148.382000
67.660544	3.985609	148.428000
67.681735	3.930420	148.474000
67.702442	3.877596	148.520000
67.723779	3.863038	148.565000
67.744624	3.903463	148.611000
67.766061	3.987473	148.657000
67.786438	4.065570	148.703000
67.807291	4.125564	148.748000
67.827936	4.167476	148.794000
67.849358	4.174291	148.840000
67.870548	4.158587	148.886000
68.135774	4.177485	148.932000
68.156442	4.153710	149.511000
68.177710	4.209726	149.557000
68.199254	4.212593	149.603000
68.221406	4.177526	149.649000
68.241736	4.162165	149.694000
68.262144	4.177148	149.740000
68.282958	4.187289	149.786000
68.303796	4.175568	149.832000
68.324587	4.140455	149.877000
68.346231	4.123020	149.923000
68.367000	4.109789	149.969000
68.449205	4.009571	150.015000
68.469720	4.002595	150.192000
68.544219	4.007439	150.238000
68.565371	4.137123	150.399000
68.585848	4.203694	150.445000
68.606739	4.271879	150.491000
68.627599	4.339891	150.536000
68.648222	4.396477	150.582000
68.669367	4.438388	150.628000
68.691380	4.471077	150.674000
68.711618	4.496862	150.719000
68.732210	4.513172	150.765000
68.753170	4.523222	150.811000
68.774300	4.533837	150.857000
68.795014	4.551903	150.903000
68.815882	4.576845	150.948000
68.837181	4.577759	150.994000
68.858157	4.532591	151.040000
68.878687	4.447212	151.086000
68.952663	4.022300	151.131000
68.973309	3.924743	151.292000
69.047715	3.839519	151.338000
69.068015	3.620426	151.499000
69.089068	3.566843	151.545000
69.110005	3.519647	151.591000
69.131089	3.479989	151.637000
69.152756	3.453446	151.682000
69.173325	3.440386	151.728000
69.193916	3.436508	151.774000
69.214685	3.446117	151.819000
69.235653	3.462564	151.865000
69.256629	3.493830	151.911000
69.278088	3.547407	151.957000
69.299479	3.600927	152.003000
69.320616	3.653742	152.048000
69.341147	3.710082	152.094000
69.361638	3.754053	152.140000
69.382968	3.776875	152.185000
69.456990	3.761030	152.231000
69.477766	3.707194	152.392000
69.550989	3.646317	152.438000
69.572373	3.511498	152.599000
69.593456	3.500236	152.645000
69.615469	3.476768	152.691000
69.636629	3.456329	152.737000
69.656929	3.452332	152.782000
69.677889	3.451016	152.828000
69.698735	3.448769	152.874000
69.719626	3.454772	152.920000
69.740487	3.480038	152.966000
69.761616	3.520676	153.012000
69.782699	3.576197	153.057000
69.804252	3.630583	153.103000
69.824759	3.665428	153.149000
69.845435	3.679533	153.195000
69.866342	3.686579	153.241000
69.887271	3.706048	153.286000
69.960833	3.930208	153.332000
69.982300	4.014910	153.492000
70.055401	4.101239	153.538000
70.077314	4.279007	153.699000
70.097875	4.291002	153.745000
70.118659	4.302526	153.791000
70.139127	4.320466	153.837000
70.159949	4.342971	153.883000
70.180818	4.373880	153.928000
70.201878	4.426110	153.974000
70.223369	4.493980	154.020000
70.244767	4.567548	154.066000
70.265474	4.636920	154.112000
70.286204	4.681148	154.157000
70.307088	4.690614	154.203000
70.328455	4.675600	154.249000
70.349293	4.665170	154.295000
70.370422	4.656474	154.341000
70.392351	4.643204	154.386000
70.656308	4.311553	154.432000
70.678529	4.461396	155.011000
70.699712	4.498432	155.057000
70.720112	4.495257	155.103000
70.741134	4.447200	155.149000
70.761618	4.371045	155.195000
70.782939	4.296093	155.241000
70.803815	4.236605	155.287000
70.824868	4.189934	155.332000
70.846197	4.161383	155.378000
70.866904	4.139279	155.424000
70.887872	4.124336	155.469000
70.969417	3.951539	155.515000
70.990047	3.858994	155.693000
71.063424	3.764325	155.738000
71.083947	3.364776	155.899000
71.105276	3.272934	155.945000
71.126398	3.209341	155.991000
71.147550	3.183753	156.037000
71.168426	3.205085	156.082000
71.189317	3.272812	156.128000
71.210001	3.367387	156.173000
71.230739	3.463884	156.219000
71.251792	3.554916	156.265000
71.272829	3.655969	156.311000
71.293782	3.764628	156.357000
71.315856	3.867005	156.403000
71.336847	3.950627	156.449000
71.357101	4.017221	156.494000
71.378100	4.071970	156.540000
71.399206	4.119227	156.586000
71.472799	4.280564	156.631000
71.493728	4.311982	156.793000
71.567090	4.331730	156.839000
71.588250	4.455949	156.999000
71.609357	4.474889	157.045000
71.631116	4.472365	157.091000
71.652138	4.453588	157.137000
71.672638	4.420721	157.183000
71.693483	4.381959	157.228000
71.714128	4.353955	157.274000
71.735396	4.344966	157.320000
71.756049	4.353693	157.365000
71.777171	4.372564	157.411000
71.798631	4.378037	157.457000
71.819223	4.381260	157.503000
71.840014	4.397621	157.548000
71.861190	4.424032	157.594000
71.881996	4.448448	157.640000
71.902811	4.446116	157.686000
71.977056	4.358734	157.731000
71.997963	4.358734	157.893000
72.071378	4.369443	157.939000
72.093361	4.446704	158.099000
72.113875	4.468463	158.145000
72.134890	4.495238	158.191000
72.155758	4.515893	158.237000
72.176334	4.532844	158.283000
72.197133	4.556468	158.328000
72.218486	4.585069	158.374000
72.239707	4.602994	158.420000
72.261290	4.612636	158.466000
72.282205	4.648030	158.511000
72.303004	4.703968	158.557000
72.324225	4.766218	158.603000
72.344871	4.837038	158.649000
72.365631	4.909331	158.695000
72.387007	4.975791	158.741000
72.408083	5.027875	158.787000
72.481060	5.123257	158.832000
72.502697	5.143797	158.993000
72.576381	5.145480	159.039000
72.597065	5.195362	159.199000
72.617534	5.218694	159.245000
72.638586	5.248026	159.291000
72.659378	5.285507	159.337000
72.681491	5.318342	159.383000
72.702428	5.341249	159.428000
72.724118	5.365700	159.474000
72.745033	5.399576	159.520000
72.765425	5.444164	159.566000
72.786554	5.495041	159.612000
72.807361	5.543480	159.657000
72.827922	5.577872	159.703000
72.849305	5.594818	159.749000
72.870995	5.607443	159.795000
72.892148	5.621491	159.841000
72.912655	5.627489	159.887000
73.178126	5.532643	159.933000
73.199517	5.625777	160.512000
73.220016	5.659825	160.558000
73.240470	5.721462	160.604000
73.261791	5.817753	160.649000
73.282406	5.922770	160.695000
73.303459	6.017842	160.741000
73.325003	6.103210	160.787000
73.346286	6.190421	160.833000
73.367185	6.279082	160.879000
73.388192	6.353178	160.925000
73.408768	6.407066	160.970000
73.489391	6.430067	161.016000
73.510205	6.413493	161.193000
73.584197	6.393439	161.238000
73.605081	6.378857	161.400000
73.626387	6.395232	161.445000
73.647624	6.411905	161.491000
73.669061	6.440435	161.537000
73.689399	6.489802	161.582000
73.710321	6.560914	161.628000
73.731074	6.649294	161.674000
73.751719	6.721015	161.720000
73.772603	6.795414	161.766000
73.794240	6.868798	161.811000
73.815684	6.923931	161.857000
73.836499	6.987504	161.903000
73.857528	7.076080	161.949000
73.878535	7.144398	161.995000
73.899119	7.191886	162.041000
73.920225	7.217041	162.086000
73.993272	7.249601	162.132000
74.014586	7.286520	162.293000
74.088508	7.325710	162.339000
74.109676	7.400738	162.499000
74.131067	7.371004	162.545000
74.151920	7.339638	162.591000
74.172926	7.329425	162.637000
74.193487	7.352324	162.683000
74.214194	7.395281	162.729000
74.235201	7.438336	162.775000
74.256753	7.474590	162.821000
74.277951	7.504215	162.866000
74.298996	7.528945	162.912000
74.320149	7.558914	162.958000
74.340718	7.596173	163.004000
74.361148	7.634102	163.050000
74.382224	7.665738	163.096000
74.403776	7.689642	163.142000
74.425397	7.698053	163.188000
74.498090	7.673108	163.234000
74.519204	7.682968	163.393000
74.593357	7.710459	163.439000
74.614779	7.796399	163.600000
74.635071	7.793707	163.645000
74.655939	7.787316	163.691000
74.677199	7.782408	163.737000
74.698044	7.783834	163.783000
74.719474	7.795316	163.829000
74.740949	7.814631	163.875000
74.761771	7.837515	163.921000
74.782324	7.861598	163.967000
74.802901	7.886474	164.012000
74.823354	7.916564	164.058000
74.844445	7.957365	164.104000
74.865636	8.010449	164.150000
74.887380	8.084494	164.196000
74.908540	8.169816	164.242000
74.929224	8.250595	164.287000
75.002340	8.491326	164.333000
75.023178	8.523933	164.493000
75.096293	8.549196	164.539000
75.117438	8.571999	164.700000
75.137945	8.535843	164.746000
75.158990	8.495167	164.792000
75.180266	8.451947	164.837000
75.201403	8.417566	164.883000
75.222924	8.410873	164.929000
75.243531	8.437207	164.975000
75.264154	8.484441	165.020000
75.284707	8.558047	165.066000
75.305744	8.676550	165.112000
75.327012	8.829206	165.158000
75.348303	8.973750	165.204000
75.369671	9.102281	165.250000
75.390439	9.208754	165.295000
75.410754	9.291009	165.341000
75.432014	9.343561	165.387000
75.697731	9.767478	165.433000
75.718430	10.096556	166.012000
75.739099	10.122410	166.058000
75.760129	10.140134	166.103000
75.781535	10.156373	166.149000
75.803294	10.166556	166.195000
75.823678	10.174544	166.241000
75.844969	10.195307	166.287000
75.865254	10.219315	166.333000
75.886291	10.246732	166.378000
75.906967	10.271807	166.424000
75.928319	10.298545	166.470000
76.009449	10.629018	166.516000
76.030924	10.740030	166.693000
76.104678	10.832774	166.739000
76.126215	11.046951	166.900000
76.147067	11.092020	166.945000
76.167959	11.129529	166.992000
76.188881	11.133582	167.037000
76.210018	11.139333	167.083000
76.230356	11.164763	167.129000
76.251509	11.211009	167.175000
76.272992	11.262413	167.220000
76.294136	11.311875	167.266000
76.315089	11.361078	167.312000
76.335197	11.413075	167.358000
76.356419	11.468861	167.403000
76.377279	11.535284	167.449000
76.398071	11.610031	167.495000
76.419699	11.677783	167.541000
76.440960	11.740715	167.587000
76.514544	11.986748	167.633000
76.535412	12.037970	167.793000
76.608997	12.070670	167.839000
76.630073	12.023308	168.000000
76.650703	12.013642	168.046000
76.672178	12.017023	168.092000
76.692316	12.032250	168.137000
76.713292	12.082868	168.183000
76.735205	12.148728	168.229000
76.756558	12.192150	168.275000
76.777042	12.228134	168.321000
76.797956	12.281535	168.367000
76.818302	12.344058	168.413000
76.838947	12.400351	168.458000
76.860538	12.442287	168.504000
76.882013	12.492390	168.550000
76.902804	12.560240	168.596000
76.924049	12.640913	168.642000
76.945148	12.718043	168.687000
77.018533	12.927811	168.733000
77.039178	12.967973	168.893000
77.113070	13.007254	168.939000
77.133516	13.273280	169.100000
77.154100	13.346531	169.146000
77.175160	13.405756	169.191000
77.196466	13.461676	169.238000
77.217872	13.539709	169.283000
77.239248	13.635087	169.329000
77.260039	13.730845	169.375000
77.280754	13.813732	169.421000
77.301714	13.887334	169.467000
77.322751	13.950124	169.512000
77.343597	13.999447	169.558000
77.365302	14.050922	169.604000
77.386524	14.140476	169.649000
77.406709	14.259852	169.695000
77.427777	14.389886	169.741000
77.448553	14.512821	169.787000
77.521699	14.954256	169.833000
77.542852	15.057782	169.993000
77.616306	15.127870	170.039000
77.637020	15.279099	170.200000
77.658726	15.323384	170.246000
77.679586	15.378994	170.292000
77.700662	15.426293	170.337000
77.721807	15.471507	170.383000
77.742161	15.532817	170.429000
77.763398	15.599395	170.475000
77.784174	15.660422	170.521000
77.805480	15.723818	170.567000
77.827078	15.791483	170.613000
77.848308	15.870311	170.658000
77.869160	15.955825	170.704000
77.889936	16.040179	170.749000
77.910782	16.131899	170.795000
77.931573	16.228126	170.841000
77.953094	16.349887	170.887000
78.218258	17.302267	170.933000
78.239480	17.831105	171.512000
78.261086	17.852710	171.558000
78.282146	17.850206	171.604000
78.303030	17.829005	171.650000
78.323445	17.812810	171.695000
78.344036	17.803667	171.741000
78.364882	17.813647	171.787000
78.386011	17.851351	171.833000
78.407271	17.898558	171.878000
78.429330	17.962708	171.924000
78.449692	18.060206	171.970000
78.531828	18.310487	172.016000
78.552150	18.389834	172.193000
78.625881	18.478183	172.239000
78.646711	18.860907	172.400000
78.667471	18.969558	172.446000
78.688186	19.062511	172.492000
78.708924	19.139800	172.538000
78.730099	19.209828	172.583000
78.752189	19.278123	172.630000
78.772927	19.349388	172.675000
78.793757	19.424233	172.721000
78.814640	19.503907	172.767000
78.835117	19.588434	172.812000
78.856070	19.680000	172.858000
78.877207	19.776115	172.904000
78.898897	19.871759	172.950000
78.920242	19.972993	172.996000
78.940611	20.097020	173.041000
78.961471	20.239963	173.087000
79.034625	20.752880	173.133000
79.055547	20.865166	173.293000
79.129424	20.986948	173.339000
79.149731	21.621584	173.500000
79.171061	21.773380	173.546000
79.191583	21.902424	173.592000
79.213273	22.021970	173.638000
79.234741	22.151826	173.683000
79.255725	22.299422	173.729000
79.276739	22.446525	173.775000
79.297346	22.575352	173.821000
79.318060	22.678073	173.867000
79.339597	22.752616	173.913000
79.360419	22.822072	173.958000
79.381387	22.892292	174.004000
79.402363	22.974127	174.050000
79.423339	23.075076	174.096000
79.443908	23.152901	174.142000
79.465014	23.183844	174.187000
79.538368	23.201987	174.233000
79.559075	23.214138	174.393000
79.632437	23.224971	174.439000
79.653835	23.346980	174.600000
79.675510	23.417751	174.646000
79.696724	23.510723	174.692000
79.717884	23.624196	174.737000
79.738299	23.760318	174.783000
79.759175	23.914008	174.829000
79.779890	24.076545	174.875000
79.800873	24.243094	174.920000
79.822595	24.397390	174.966000
79.844462	24.529625	175.012000
79.864731	24.648301	175.057000
79.885607	24.775407	175.103000
79.906183	24.911714	175.149000
79.927412	25.081939	175.195000
79.948227	25.278116	175.240000
79.969164	25.482368	175.286000
80.043018	26.227241	175.332000
80.064977	26.443248	175.493000
80.138630	26.649191	175.539000
80.159798	27.308136	175.700000
80.181043	27.485131	175.746000
80.201404	27.661524	175.792000
80.221681	27.836449	175.838000
80.243310	28.001042	175.884000
80.264163	28.155260	175.930000
80.285169	28.311584	175.976000
80.306675	28.475816	176.021000
80.327498	28.640682	176.067000
80.348397	28.802410	176.113000
80.369342	28.964457	176.159000
80.390256	29.126670	176.204000
80.411040	29.281442	176.250000
80.432131	29.424710	176.296000
80.453084	29.551923	176.342000
80.474259	29.650696	176.387000
80.740199	30.903769	176.433000
80.761728	31.753122	177.013000
80.782535	31.813822	177.059000
80.803296	31.869899	177.105000
80.824079	31.965543	177.151000
80.845017	32.083896	177.196000
80.865823	32.200337	177.242000
80.887268	32.321945	177.288000
80.908198	32.451600	177.333000
80.929220	32.561385	177.379000
80.950019	32.627368	177.425000
80.970979	32.666430	177.471000
81.051433	32.959805	177.516000
81.072178	33.061930	177.694000
81.145532	33.172187	177.739000
81.166055	33.670233	177.900000
81.187791	33.821059	177.946000
81.208790	33.973015	177.992000
81.230411	34.147543	178.038000
81.251986	34.356810	178.083000
81.272255	34.585592	178.130000
81.293377	34.822691	178.176000
81.314307	35.074419	178.221000
81.334968	35.328936	178.267000
81.355990	35.571654	178.313000
81.377096	35.796894	178.359000
81.398003	35.990198	178.405000
81.418825	36.157238	178.450000
81.440123	36.297768	178.496000
81.460961	36.428745	178.542000
81.481952	36.568113	178.588000
81.555068	37.352769	178.634000
81.575967	37.558752	178.793000
81.650504	37.725395	178.839000
81.671741	38.121856	179.000000
81.693170	38.288118	179.046000
81.714154	38.508769	179.092000
81.734876	38.750317	179.137000
81.755353	38.989490	179.184000
81.776129	39.202243	179.229000
81.796943	39.387787	179.275000
81.818119	39.557067	179.321000
81.839563	39.715328	179.367000
81.860754	39.858059	179.413000
81.882245	40.018758	179.459000
81.902475	40.205372	179.505000
81.923459	40.417449	179.550000
81.944527	40.647214	179.596000
81.965311	40.881139	179.642000
81.986371	41.101851	179.688000
82.060063	41.762566	179.734000
82.081246	41.935762	179.893000
82.154923	42.094410	179.940000
82.175976	42.659539	180.100000
82.196967	42.845047	180.146000
82.217666	43.037445	180.192000
82.238650	43.228047	180.238000
82.259249	43.412487	180.284000
82.280171	43.611848	180.330000
82.301831	43.854172	180.375000
82.322461	44.126974	180.421000
82.343444	44.408190	180.467000
82.364220	44.691324	180.512000
82.385058	44.978817	180.558000
82.405895	45.251369	180.604000
82.426794	45.509210	180.650000
82.447601	45.760443	180.696000
82.469853	46.008740	180.741000
82.490582	46.251884	180.787000
82.563545	47.034222	180.833000
82.585296	47.244694	180.994000
82.659595	47.451893	181.040000
82.679634	48.102754	181.201000
82.700610	48.295723	181.246000
82.721586	48.511494	181.292000
