Sample	2mm tape 
date	07/01/2025
	
Temperature (K)	77.00
Angle (deg.)	0.000000
field / T	0.200000
	
		
Approx. trace time (s)	120.0	
		
Current / A	V1  -sample/ uV	time/s
-0.022762	-1.518175	0.000000
-0.023036	-1.483090	0.046000
-0.022421	-1.477269	0.092000
-0.023048	-1.582370	0.137000
-0.022481	-1.616356	0.294000
-0.022326	-1.645575	0.340000
-0.022696	-1.666316	0.496000
-0.022164	-1.683720	0.542000
-0.022099	-1.720499	0.587000
-0.023073	-1.769626	0.633000
-0.022774	-1.812880	0.679000
-0.022230	-1.852009	0.725000
-0.005859	-1.876647	0.771000
0.015177	-1.881806	0.817000
0.035727	-1.884495	0.862000
0.055711	-1.873118	0.908000
0.077380	-1.860620	0.954000
0.097957	-1.848148	1.000000
0.120329	-1.827862	1.045000
0.141025	-1.798629	1.091000
0.161282	-1.794299	1.137000
0.182247	-1.839134	1.183000
0.252388	-2.058088	1.229000
0.273909	-2.101520	1.384000
0.346598	-2.126576	1.430000
0.368090	-2.087181	1.586000
0.387603	-2.042111	1.632000
0.409282	-1.987955	1.678000
0.430374	-1.940094	1.724000
0.449677	-1.895666	1.769000
0.471203	-1.860600	1.816000
0.492360	-1.821850	1.861000
0.513557	-1.792050	1.907000
0.534811	-1.766527	1.953000
0.555805	-1.753786	1.999000
0.576333	-1.747975	2.044000
0.597082	-1.746325	2.090000
0.618298	-1.729577	2.136000
0.640173	-1.700817	2.182000
0.661247	-1.667048	2.228000
0.681359	-1.631836	2.274000
0.752064	-1.638852	2.319000
0.772270	-1.685339	2.475000
0.844537	-1.740685	2.521000
0.866526	-1.921762	2.676000
0.887827	-1.952856	2.722000
0.907991	-1.974479	2.768000
0.929259	-1.998152	2.814000
0.949357	-2.013421	2.859000
0.971035	-2.026451	2.905000
0.991664	-2.050100	2.951000
1.013865	-2.084590	2.997000
1.034369	-2.114962	3.042000
1.055105	-2.131142	3.088000
1.075986	-2.121848	3.135000
1.097289	-2.092317	3.180000
1.117745	-2.057166	3.226000
1.138932	-2.039928	3.272000
1.159144	-2.027202	3.318000
1.181135	-2.008737	3.364000
1.445896	-1.799379	3.410000
1.466773	-1.629226	3.989000
1.488078	-1.606600	4.035000
1.509252	-1.584075	4.080000
1.529930	-1.565734	4.126000
1.551369	-1.553791	4.172000
1.571258	-1.549545	4.218000
1.592897	-1.560025	4.263000
1.614119	-1.578266	4.309000
1.634837	-1.598238	4.355000
1.657466	-1.616831	4.401000
1.677283	-1.630188	4.447000
1.697880	-1.654663	4.493000
1.769566	-1.703276	4.539000
1.789747	-1.691749	4.695000
1.862822	-1.667128	4.741000
1.885093	-1.563301	4.897000
1.904928	-1.556632	4.943000
1.926133	-1.573764	4.989000
1.947233	-1.617945	5.035000
1.967386	-1.673412	5.081000
1.989650	-1.706094	5.127000
2.010187	-1.721744	5.173000
2.031666	-1.737162	5.218000
2.052810	-1.755220	5.264000
2.073114	-1.783728	5.310000
2.093995	-1.824485	5.355000
2.114386	-1.878827	5.401000
2.134912	-1.937884	5.447000
2.156691	-2.000811	5.493000
2.177705	-2.044419	5.539000
2.199636	-2.063829	5.585000
2.270095	-2.125803	5.630000
2.291526	-2.142799	5.786000
2.363518	-2.153928	5.832000
2.384145	-2.140248	5.989000
2.406020	-2.119060	6.034000
2.426531	-2.104311	6.080000
2.446518	-2.083752	6.126000
2.467592	-2.063717	6.172000
2.487654	-2.079983	6.218000
2.509199	-2.137869	6.263000
2.530803	-2.205963	6.309000
2.551667	-2.260128	6.355000
2.573363	-2.297802	6.400000
2.594411	-2.328114	6.447000
2.614825	-2.359036	6.492000
2.635709	-2.382880	6.538000
2.656856	-2.392037	6.584000
2.678139	-2.377842	6.630000
2.699616	-2.322692	6.676000
2.771270	-2.098179	6.721000
2.791297	-2.093601	6.878000
2.863325	-2.082393	6.923000
2.884432	-2.005259	7.080000
2.905485	-1.987536	7.126000
2.926786	-1.981933	7.171000
2.947518	-1.984447	7.217000
2.968307	-2.001053	7.263000
2.989147	-2.024665	7.309000
3.009562	-2.038103	7.355000
3.031559	-2.024817	7.401000
3.052465	-2.003547	7.447000
3.074200	-1.981070	7.492000
3.095197	-1.964039	7.538000
3.115844	-1.945344	7.584000
3.136062	-1.928087	7.630000
3.156362	-1.917179	7.675000
3.176801	-1.913866	7.721000
3.198533	-1.911594	7.767000
3.272916	-1.910671	7.813000
3.294167	-1.843908	7.974000
3.366274	-1.761335	8.020000
3.387106	-1.533191	8.176000
3.407449	-1.502563	8.222000
3.428899	-1.495587	8.268000
3.449088	-1.521067	8.314000
3.470755	-1.566515	8.360000
3.491578	-1.629415	8.406000
3.512897	-1.698306	8.452000
3.534478	-1.773704	8.498000
3.554912	-1.850702	8.544000
3.576210	-1.926253	8.589000
3.596736	-1.989818	8.635000
3.616953	-2.039509	8.680000
3.639112	-2.059301	8.726000
3.659942	-2.037069	8.772000
3.681213	-1.978445	8.818000
3.702322	-1.921347	8.864000
3.967848	-1.809436	8.910000
3.988297	-2.088395	9.489000
4.009945	-2.143832	9.535000
4.029738	-2.198458	9.581000
4.050770	-2.261819	9.626000
4.072181	-2.334084	9.672000
4.092947	-2.401504	9.718000
4.114062	-2.467399	9.763000
4.134422	-2.520295	9.809000
4.155696	-2.560216	9.855000
4.177148	-2.597255	9.901000
4.197742	-2.613138	9.947000
4.219588	-2.618041	9.992000
4.291769	-2.621513	10.038000
4.312762	-2.607185	10.194000
4.383800	-2.577271	10.240000
4.405301	-2.521980	10.396000
4.425597	-2.504405	10.442000
4.446826	-2.484219	10.488000
4.468056	-2.445302	10.534000
4.489950	-2.405785	10.580000
4.510886	-2.372997	10.626000
4.531314	-2.345816	10.672000
4.551939	-2.310512	10.718000
4.572981	-2.275629	10.763000
4.594029	-2.229547	10.809000
4.615479	-2.190767	10.855000
4.636582	-2.167713	10.901000
4.657874	-2.158493	10.946000
4.678562	-2.141780	10.992000
4.698972	-2.128424	11.038000
4.719663	-2.115662	11.083000
4.791631	-2.070976	11.129000
4.813286	-2.048138	11.285000
4.885218	-2.023429	11.331000
4.905388	-1.951436	11.488000
4.926494	-1.923180	11.533000
4.947642	-1.892268	11.579000
4.968046	-1.850328	11.625000
4.990019	-1.808120	11.671000
5.010961	-1.771370	11.717000
5.032058	-1.740145	11.762000
5.053053	-1.722676	11.809000
5.073784	-1.716784	11.854000
5.094736	-1.720287	11.900000
5.115596	-1.725871	11.946000
5.136657	-1.737453	11.992000
5.157524	-1.742181	12.038000
5.178884	-1.744702	12.084000
5.200045	-1.758311	12.129000
5.220790	-1.781068	12.175000
5.291849	-1.950371	12.221000
5.312561	-2.014091	12.377000
5.385073	-2.068668	12.422000
5.406264	-2.172603	12.579000
5.426913	-2.200263	12.625000
5.447615	-2.225529	12.670000
5.468874	-2.242032	12.716000
5.489152	-2.243799	12.762000
5.510156	-2.246969	12.808000
5.531720	-2.257998	12.854000
5.552925	-2.267083	12.900000
5.573967	-2.278895	12.945000
5.594937	-2.294001	12.991000
5.615603	-2.306085	13.037000
5.636565	-2.316232	13.082000
5.657500	-2.328562	13.128000
5.678833	-2.330425	13.174000
5.700258	-2.333256	13.220000
5.720744	-2.330506	13.265000
5.795865	-2.276239	13.311000
5.816966	-2.239080	13.475000
5.887986	-2.190737	13.520000
5.908883	-2.038275	13.677000
5.929765	-2.043003	13.722000
5.950758	-2.078496	13.768000
5.972131	-2.124801	13.814000
5.993797	-2.173262	13.860000
6.014070	-2.217959	13.906000
6.035424	-2.259775	13.952000
6.055960	-2.303103	13.998000
6.076785	-2.343696	14.043000
6.097938	-2.380185	14.089000
6.119190	-2.415881	14.135000
6.140659	-2.449184	14.181000
6.161857	-2.420292	14.227000
6.182266	-2.338324	14.272000
6.202909	-2.225661	14.318000
6.224510	-2.118233	14.364000
6.489612	-2.043349	14.410000
6.510661	-1.938105	14.989000
6.531569	-1.923588	15.035000
6.552517	-1.916215	15.081000
6.574429	-1.919530	15.126000
6.595596	-1.927885	15.172000
6.616267	-1.938095	15.218000
6.637455	-1.955696	15.264000
6.657738	-1.964716	15.309000
6.678590	-1.968612	15.355000
6.699792	-1.977835	15.401000
6.721671	-2.003769	15.447000
6.742809	-2.038915	15.493000
6.813683	-2.174093	15.539000
6.834820	-2.199169	15.695000
6.905385	-2.214149	15.740000
6.927096	-2.181251	15.896000
6.948231	-2.150969	15.942000
6.969987	-2.099826	15.988000
6.990588	-2.039459	16.034000
7.011596	-1.968865	16.080000
7.031734	-1.911918	16.126000
7.052651	-1.862921	16.172000
7.073467	-1.819144	16.217000
7.094800	-1.776783	16.263000
7.116479	-1.738417	16.309000
7.136650	-1.713723	16.354000
7.157606	-1.717026	16.400000
7.178355	-1.730966	16.446000
7.199325	-1.754147	16.492000
7.220602	-1.767105	16.538000
7.241730	-1.761395	16.584000
7.314056	-1.820472	16.629000
7.334898	-1.840666	16.786000
7.405532	-1.810509	16.831000
7.426771	-1.574717	16.988000
7.447758	-1.535371	17.034000
7.469180	-1.516150	17.079000
7.490156	-1.502785	17.125000
7.510690	-1.500719	17.171000
7.531749	-1.511890	17.217000
7.552050	-1.530819	17.263000
7.572825	-1.537295	17.308000
7.593547	-1.517861	17.354000
7.615104	-1.481292	17.399000
7.636552	-1.450047	17.445000
7.657597	-1.433552	17.491000
7.678645	-1.429414	17.537000
7.699395	-1.431008	17.583000
7.719713	-1.431442	17.628000
7.740338	-1.456291	17.674000
7.812660	-1.521259	17.720000
7.833530	-1.516514	17.876000
7.905546	-1.510361	17.922000
7.926644	-1.435914	18.078000
7.947310	-1.432346	18.124000
7.967946	-1.433653	18.170000
7.989500	-1.446277	18.215000
8.010915	-1.463085	18.261000
8.031850	-1.491200	18.307000
8.052455	-1.527473	18.352000
8.072881	-1.564062	18.398000
8.094224	-1.609290	18.444000
8.114894	-1.656638	18.490000
8.136054	-1.706707	18.536000
8.157658	-1.760740	18.582000
8.178291	-1.823460	18.627000
8.198712	-1.888093	18.673000
8.219688	-1.942527	18.719000
8.240551	-1.997292	18.765000
8.316192	-2.088862	18.810000
8.337578	-2.085713	18.975000
8.408880	-2.077861	19.021000
8.429903	-2.071550	19.177000
8.451159	-2.041082	19.223000
8.472326	-2.003067	19.269000
8.493462	-1.955166	19.314000
8.514190	-1.877357	19.360000
8.534814	-1.771964	19.406000
8.555382	-1.660363	19.451000
8.576103	-1.565975	19.497000
8.597743	-1.491145	19.543000
8.619246	-1.442492	19.589000
8.640316	-1.401384	19.635000
8.660397	-1.382506	19.680000
8.681617	-1.371255	19.726000
8.702281	-1.358964	19.772000
8.723478	-1.339479	19.818000
8.744803	-1.327331	19.863000
9.009609	-1.246056	19.909000
9.030504	-1.237785	20.489000
9.051936	-1.269715	20.535000
9.073449	-1.313458	20.581000
9.094510	-1.378314	20.627000
9.114985	-1.459017	20.672000
9.135136	-1.547304	20.718000
9.155736	-1.630277	20.764000
9.177094	-1.691249	20.810000
9.198654	-1.727696	20.855000
9.219832	-1.745634	20.901000
9.240534	-1.729364	20.947000
9.261408	-1.696880	20.993000
9.332664	-1.695166	21.039000
9.353259	-1.736057	21.195000
9.425909	-1.775003	21.241000
9.447428	-1.818998	21.397000
9.468171	-1.799631	21.443000
9.488657	-1.767064	21.488000
9.509324	-1.719807	21.534000
9.530022	-1.667016	21.580000
9.550699	-1.612123	21.625000
9.572691	-1.561507	21.671000
9.593120	-1.504733	21.717000
9.614749	-1.448659	21.763000
9.635300	-1.389083	21.809000
9.656425	-1.338354	21.854000
9.677413	-1.298434	21.900000
9.697838	-1.282834	21.946000
9.719144	-1.290254	21.991000
9.740441	-1.310087	22.037000
9.761308	-1.322421	22.083000
9.832237	-1.266364	22.129000
9.853741	-1.229686	22.284000
9.924892	-1.189485	22.331000
9.946571	-1.067060	22.486000
9.967064	-1.022172	22.532000
9.987473	-0.974599	22.578000
10.008431	-0.922822	22.623000
10.029361	-0.882127	22.669000
10.050236	-0.837815	22.715000
10.070916	-0.793031	22.761000
10.092644	-0.755875	22.807000
10.114141	-0.734171	22.852000
10.134982	-0.732796	22.898000
10.155785	-0.749710	22.944000
10.175830	-0.783309	22.990000
10.196257	-0.829840	23.036000
10.217398	-0.882843	23.082000
10.238874	-0.920404	23.127000
10.260322	-0.943353	23.173000
10.331977	-0.925091	23.219000
10.352679	-0.944743	23.375000
10.423929	-0.973503	23.421000
10.445132	-1.112543	23.577000
10.466859	-1.162978	23.623000
10.487977	-1.194621	23.668000
10.508942	-1.193019	23.714000
10.529549	-1.181430	23.760000
10.550065	-1.164908	23.806000
10.570732	-1.136812	23.852000
10.591983	-1.106154	23.898000
10.613408	-1.079664	23.944000
10.634745	-1.056456	23.989000
10.655492	-1.056051	24.035000
10.676549	-1.069008	24.081000
10.697330	-1.095185	24.127000
10.718656	-1.113351	24.172000
10.739440	-1.135161	24.218000
10.760702	-1.156775	24.264000
10.866854	-1.167700	24.310000
10.937443	-1.178684	24.542000
10.958676	-1.157301	24.698000
10.980218	-1.128479	24.744000
11.001037	-1.101349	24.790000
11.021626	-1.077585	24.836000
11.042574	-1.072719	24.881000
11.063079	-1.065410	24.927000
11.084141	-1.036229	24.973000
11.105007	-1.005430	25.018000
11.126092	-0.954445	25.064000
11.147142	-0.896834	25.110000
11.168466	-0.860858	25.156000
11.189095	-0.848983	25.201000
11.210084	-0.870978	25.248000
11.230688	-0.886886	25.293000
11.251718	-0.888311	25.339000
11.272651	-0.875433	25.385000
11.529488	-1.323339	25.431000
11.551080	-1.411756	25.989000
11.572495	-1.394660	26.035000
11.592606	-1.375537	26.081000
11.613428	-1.363641	26.127000
11.634384	-1.365526	26.173000
11.655392	-1.371650	26.219000
11.676699	-1.385100	26.265000
11.698074	-1.395948	26.311000
11.718495	-1.418953	26.357000
11.739320	-1.451122	26.402000
11.760350	-1.498650	26.448000
11.781075	-1.552614	26.494000
11.853460	-1.681602	26.540000
11.874476	-1.710861	26.696000
11.946610	-1.743475	26.742000
11.967049	-1.702691	26.898000
11.987341	-1.643115	26.944000
12.008145	-1.592782	26.990000
12.029227	-1.565914	27.035000
12.050141	-1.560402	27.081000
12.071802	-1.559094	27.127000
12.093343	-1.570063	27.173000
12.113874	-1.575983	27.219000
12.134600	-1.560331	27.264000
12.155776	-1.546309	27.310000
12.176917	-1.552937	27.356000
12.197726	-1.573904	27.402000
12.219079	-1.589456	27.448000
12.240124	-1.570885	27.493000
12.261362	-1.519007	27.539000
12.282194	-1.454407	27.585000
12.352516	-1.409403	27.631000
12.373839	-1.415263	27.786000
12.445820	-1.426990	27.832000
12.466753	-1.386579	27.988000
12.488044	-1.378878	28.034000
12.508648	-1.401110	28.080000
12.529141	-1.428392	28.126000
12.550722	-1.442475	28.172000
12.571578	-1.445281	28.218000
12.593154	-1.429018	28.263000
12.614407	-1.414138	28.309000
12.635267	-1.413851	28.355000
12.655314	-1.408460	28.401000
12.676032	-1.392409	28.446000
12.697126	-1.376766	28.492000
12.717888	-1.373576	28.538000
12.740081	-1.378928	28.583000
12.760746	-1.387543	28.629000
12.781373	-1.407111	28.675000
12.852250	-1.542962	28.721000
12.873045	-1.607021	28.876000
12.944848	-1.648537	28.922000
12.966302	-1.496115	29.078000
12.987141	-1.420271	29.124000
13.007745	-1.345481	29.170000
13.029015	-1.282835	29.216000
13.049691	-1.240845	29.262000
13.070516	-1.209317	29.308000
13.091828	-1.194570	29.353000
13.113476	-1.205501	29.399000
13.134618	-1.246494	29.445000
13.155758	-1.304957	29.491000
13.176479	-1.364774	29.537000
13.196867	-1.419651	29.583000
13.218005	-1.467198	29.628000
13.238430	-1.507306	29.674000
13.260766	-1.542039	29.720000
13.282257	-1.563288	29.766000
13.356111	-1.565197	29.811000
13.377507	-1.558191	29.975000
13.449763	-1.553173	30.021000
13.470028	-1.529449	30.177000
13.490886	-1.482154	30.223000
13.511363	-1.445019	30.269000
13.532716	-1.417399	30.315000
13.553931	-1.400550	30.360000
13.575060	-1.392157	30.406000
13.595991	-1.399964	30.452000
13.616650	-1.414987	30.498000
13.637666	-1.421406	30.544000
13.658699	-1.432436	30.589000
13.680006	-1.439735	30.635000
13.700581	-1.435691	30.681000
13.721760	-1.433601	30.727000
13.743094	-1.457305	30.773000
13.763765	-1.484143	30.819000
13.784410	-1.523690	30.864000
14.050701	-1.401878	30.910000
14.071285	-1.416429	31.489000
14.092528	-1.398411	31.536000
14.113877	-1.374070	31.581000
14.134213	-1.348160	31.627000
14.155523	-1.335914	31.673000
14.177051	-1.321640	31.719000
14.198173	-1.297708	31.765000
14.218794	-1.278957	31.810000
14.239328	-1.253611	31.856000
14.260652	-1.217841	31.902000
14.281022	-1.176031	31.948000
14.301746	-1.131764	31.993000
14.374511	-1.046137	32.039000
14.395322	-1.062053	32.195000
14.465598	-1.079472	32.241000
14.487303	-1.107420	32.397000
14.508390	-1.101611	32.443000
14.529080	-1.084752	32.489000
14.550522	-1.058666	32.535000
14.571373	-1.024367	32.580000
14.592251	-0.993295	32.626000
14.613024	-0.957255	32.672000
14.633666	-0.931915	32.718000
14.654491	-0.897414	32.763000
14.675631	-0.862717	32.809000
14.697386	-0.833056	32.855000
14.718552	-0.800843	32.901000
14.739649	-0.769653	32.946000
14.759388	-0.734130	32.992000
14.779910	-0.697590	33.038000
14.800879	-0.664947	33.084000
14.872575	-0.589315	33.130000
14.894773	-0.572992	33.285000
14.966215	-0.569645	33.331000
14.986267	-0.531617	33.487000
15.007513	-0.507453	33.533000
15.028381	-0.494001	33.579000
15.049623	-0.484706	33.625000
15.071063	-0.476113	33.671000
15.092167	-0.475503	33.716000
15.112152	-0.461879	33.762000
15.132749	-0.451642	33.808000
15.153923	-0.470019	33.854000
15.174556	-0.495376	33.900000
15.196187	-0.502161	33.945000
15.217141	-0.468184	33.991000
15.238218	-0.422398	34.037000
15.259082	-0.404953	34.083000
15.279771	-0.428824	34.128000
15.300824	-0.492716	34.174000
15.372463	-0.646029	34.220000
15.393721	-0.668118	34.376000
15.465636	-0.717947	34.422000
15.486211	-0.974306	34.579000
15.507089	-1.037506	34.624000
15.528378	-1.099157	34.670000
15.549227	-1.162978	34.716000
15.569928	-1.213164	34.762000
15.590815	-1.251594	34.808000
15.612618	-1.265334	34.853000
15.633409	-1.260350	34.899000
15.653961	-1.253953	34.945000
15.675102	-1.261545	34.991000
15.695414	-1.280984	35.037000
15.716742	-1.318529	35.082000
15.737904	-1.344900	35.128000
15.759598	-1.348383	35.174000
15.780384	-1.327522	35.219000
15.801154	-1.300499	35.265000
15.876695	-1.026629	35.311000
15.897146	-0.950678	35.475000
15.968953	-0.908095	35.521000
15.990108	-1.035260	35.677000
16.010983	-1.066465	35.723000
16.032496	-1.074858	35.769000
16.053573	-1.066980	35.815000
16.075109	-1.047000	35.861000
16.095726	-1.018185	35.907000
16.116660	-0.982286	35.952000
16.137734	-0.952440	35.998000
16.158054	-0.941785	36.044000
16.178360	-0.937571	36.090000
16.200023	-0.924758	36.136000
16.220888	-0.891714	36.181000
16.241737	-0.864169	36.227000
16.262887	-0.863680	36.273000
16.283391	-0.865927	36.318000
16.303875	-0.871558	36.364000
16.570376	-0.997146	36.410000
16.591196	-1.017210	36.990000
16.611999	-1.015296	37.036000
16.633021	-1.006454	37.082000
16.654738	-0.992452	37.127000
16.676061	-0.974764	37.173000
16.696563	-0.962963	37.219000
16.717631	-0.975229	37.265000
16.738787	-1.012682	37.311000
16.759229	-1.053245	37.356000
16.779919	-1.073167	37.402000
16.801492	-1.083313	37.448000
16.822967	-1.086740	37.494000
16.894339	-1.039040	37.539000
16.915178	-0.993855	37.695000
16.986339	-0.956614	37.741000
17.007284	-0.901352	37.897000
17.029039	-0.898150	37.943000
17.050063	-0.901694	37.989000
17.070995	-0.878604	38.035000
17.091218	-0.843797	38.081000
17.111954	-0.824239	38.127000
17.133212	-0.818823	38.172000
17.153882	-0.808459	38.218000
17.175108	-0.788716	38.264000
17.196739	-0.774452	38.310000
17.217526	-0.785516	38.355000
17.238133	-0.811221	38.401000
17.258903	-0.826942	38.447000
17.280081	-0.814493	38.492000
17.300997	-0.775919	38.538000
17.322152	-0.755662	38.584000
17.393911	-0.662768	38.630000
17.414027	-0.653349	38.785000
17.485408	-0.647509	38.831000
17.506148	-0.749992	38.987000
17.527415	-0.808601	39.032000
17.549605	-0.885549	39.078000
17.569697	-0.953394	39.124000
17.590496	-0.979232	39.170000
17.611104	-0.973528	39.216000
17.632189	-0.940570	39.262000
17.653030	-0.908479	39.307000
17.674734	-0.871215	39.353000
17.695942	-0.831487	39.399000
17.716655	-0.781811	39.445000
17.737350	-0.716933	39.491000
17.758017	-0.661762	39.537000
17.779260	-0.622892	39.582000
17.800322	-0.573713	39.628000
17.821613	-0.521219	39.674000
17.894202	-0.411280	39.720000
17.914485	-0.439787	39.875000
17.985547	-0.488703	39.921000
18.006994	-0.683013	40.078000
18.027547	-0.727976	40.124000
18.048248	-0.762910	40.170000
18.070461	-0.776699	40.216000
18.091362	-0.772245	40.261000
18.101068	-0.746898	40.307000
18.133129	-0.734039	40.353000
18.153548	-0.706756	40.399000
18.174191	-0.664559	40.444000
18.195409	-0.597012	40.490000
18.217113	-0.521875	40.536000
18.238108	-0.458920	40.582000
18.259097	-0.413925	40.628000
18.279756	-0.380029	40.673000
18.300265	-0.349203	40.719000
18.320847	-0.335131	40.765000
18.397229	-0.362859	40.811000
18.418235	-0.362082	40.976000
18.490133	-0.354547	41.022000
18.510711	-0.370958	41.178000
18.532112	-0.410837	41.224000
18.553579	-0.460482	41.270000
18.574363	-0.490668	41.316000
18.595266	-0.494626	41.361000
18.615944	-0.476727	41.407000
18.636937	-0.453143	41.453000
18.657675	-0.436985	41.499000
18.679404	-0.432065	41.545000
18.700710	-0.451188	41.590000
18.721613	-0.491591	41.636000
18.741956	-0.545467	41.682000
18.762756	-0.607482	41.728000
18.783791	-0.672812	41.774000
18.804582	-0.750114	41.819000
18.825898	-0.834628	41.865000
19.090893	-1.221233	41.911000
19.111646	-1.301502	42.490000
19.133044	-1.296085	42.536000
19.153974	-1.276035	42.582000
19.175461	-1.251634	42.627000
19.195703	-1.224422	42.673000
19.216640	-1.176334	42.719000
19.237680	-1.089355	42.764000
19.258957	-0.975835	42.810000
19.280354	-0.851632	42.856000
19.301710	-0.750134	42.902000
19.322322	-0.636499	42.948000
19.342511	-0.530289	42.993000
19.413911	-0.463829	43.039000
19.434789	-0.466556	43.195000
19.507171	-0.485819	43.240000
19.528197	-0.680010	43.396000
19.548835	-0.763112	43.442000
19.569419	-0.845278	43.488000
19.590602	-0.905786	43.534000
19.611516	-0.943303	43.579000
19.632671	-0.936578	43.625000
19.654096	-0.902969	43.671000
19.675226	-0.874707	43.717000
19.695454	-0.873543	43.763000
19.716438	-0.883150	43.809000
19.737296	-0.905695	43.855000
19.758240	-0.933069	43.901000
19.779596	-0.963378	43.946000
19.800608	-1.002451	43.992000
19.822337	-1.041423	44.038000
19.843491	-1.081884	44.084000
19.914171	-1.241736	44.130000
19.934571	-1.286724	44.286000
20.006947	-1.325413	44.331000
20.027919	-1.406167	44.487000
20.048323	-1.410060	44.533000
20.069546	-1.396189	44.578000
20.090367	-1.347586	44.624000
20.110918	-1.296280	44.670000
20.132122	-1.252809	44.716000
20.153369	-1.198869	44.762000
20.174790	-1.120165	44.807000
20.195691	-1.032488	44.853000
20.216416	-0.977813	44.899000
20.237574	-0.963115	44.945000
20.257998	-0.973518	44.990000
20.279084	-0.990569	45.036000
20.300699	-1.006312	45.082000
20.322138	-1.030807	45.128000
20.343066	-1.058666	45.173000
20.414163	-1.209715	45.219000
20.435006	-1.210320	45.376000
20.505920	-1.187815	45.422000
20.527492	-1.036496	45.578000
20.548994	-1.031974	45.624000
20.569628	-1.050740	45.670000
20.590855	-1.080749	45.716000
20.611676	-1.104502	45.762000
20.632907	-1.118514	45.807000
20.653990	-1.118555	45.853000
20.674968	-1.117833	45.899000
20.696520	-1.109338	45.945000
20.718161	-1.069679	45.991000
20.738816	-1.012813	46.036000
20.758802	-0.956554	46.082000
20.779500	-0.923654	46.128000
20.800358	-0.923458	46.173000
20.821616	-0.933714	46.219000
20.842926	-0.936235	46.265000
20.918432	-0.785243	46.311000
20.939513	-0.751248	46.476000
21.010900	-0.731616	46.522000
21.032291	-0.635445	46.678000
21.052927	-0.592954	46.724000
21.073901	-0.550030	46.770000
21.094222	-0.502553	46.816000
21.115478	-0.461198	46.862000
21.136642	-0.425931	46.908000
21.157983	-0.398433	46.953000
21.179623	-0.378865	47.000000
21.200393	-0.356532	47.045000
21.220732	-0.346966	47.091000
21.241911	-0.339679	47.137000
21.262459	-0.335954	47.182000
21.283331	-0.352979	47.228000
21.304668	-0.363498	47.273000
21.325705	-0.374087	47.320000
21.346890	-0.386649	47.365000
21.612361	-0.235993	47.411000
21.633904	-0.222734	47.991000
21.654853	-0.196415	48.036000
21.674895	-0.165807	48.082000
21.695047	-0.139842	48.128000
21.716420	-0.122276	48.174000
21.737592	-0.108366	48.220000
21.759300	-0.094913	48.265000
21.780350	-0.089205	48.311000
21.800867	-0.092430	48.357000
21.822346	-0.099472	48.403000
21.843456	-0.098327	48.448000
21.863991	-0.092754	48.494000
21.935475	0.000371	48.540000
21.956714	0.018006	48.696000
22.027688	0.038344	48.742000
22.049181	0.092024	48.897000
22.070051	0.105407	48.943000
22.090948	0.111087	48.989000
22.112308	0.119551	49.035000
22.133987	0.120826	49.080000
22.154502	0.104304	49.126000
22.175209	0.082312	49.172000
22.195851	0.048924	49.218000
22.216312	0.028889	49.264000
22.238062	0.048541	49.309000
22.258215	0.080624	49.355000
22.279904	0.097579	49.401000
22.301279	0.085220	49.447000
22.321873	0.037457	49.493000
22.342983	-0.028984	49.539000
22.363684	-0.107674	49.584000
22.434871	-0.165614	49.630000
22.456308	-0.155741	49.786000
22.528281	-0.150022	49.832000
22.549272	-0.290344	49.988000
22.569754	-0.379279	50.034000
22.590838	-0.473915	50.080000
22.611387	-0.565308	50.126000
22.632056	-0.644722	50.172000
22.654094	-0.718739	50.217000
22.675248	-0.782884	50.263000
22.695932	-0.842086	50.309000
22.716946	-0.888360	50.355000
22.737473	-0.929410	50.401000
22.757907	-0.970040	50.447000
22.779307	-1.002966	50.493000
22.800145	-1.042931	50.539000
22.821829	-1.078517	50.584000
22.842573	-1.113421	50.630000
22.863987	-1.147558	50.676000
22.935445	-1.249166	50.722000
22.956601	-1.277694	50.877000
23.027959	-1.306171	50.923000
23.049292	-1.400631	51.079000
23.070629	-1.430886	51.125000
23.090710	-1.455836	51.171000
23.111175	-1.474582	51.217000
23.132158	-1.486340	51.263000
23.153261	-1.497332	51.309000
23.174669	-1.502875	51.354000
23.195451	-1.502360	51.399000
23.216133	-1.490781	51.446000
23.237118	-1.460131	51.491000
23.257996	-1.416521	51.537000
23.278753	-1.373230	51.583000
23.300101	-1.332996	51.628000
23.321035	-1.309391	51.674000
23.342272	-1.304427	51.720000
23.363150	-1.311781	51.766000
23.438431	-1.364054	51.812000
23.459819	-1.394165	51.976000
23.531575	-1.432830	52.022000
23.552150	-1.566383	52.178000
23.573193	-1.595500	52.224000
23.594184	-1.619088	52.270000
23.615208	-1.635680	52.316000
23.636984	-1.638009	52.362000
23.658469	-1.628372	52.408000
23.678575	-1.609249	52.454000
23.699772	-1.577099	52.499000
23.720189	-1.538692	52.545000
23.741362	-1.484901	52.591000
23.762300	-1.435303	52.637000
23.783279	-1.381839	52.683000
23.804664	-1.333026	52.728000
23.825925	-1.279679	52.774000
23.846603	-1.213300	52.820000
23.867884	-1.139083	52.866000
24.132658	-0.643929	52.912000
24.153601	-0.608697	53.491000
24.174000	-0.601105	53.537000
24.195287	-0.590096	53.583000
24.216494	-0.578305	53.628000
24.237389	-0.572577	53.674000
24.258484	-0.565440	53.720000
24.279840	-0.552624	53.766000
24.300518	-0.537446	53.811000
24.321732	-0.520041	53.857000
24.342552	-0.510150	53.903000
24.363580	-0.507493	53.949000
24.385148	-0.515503	53.995000
24.456077	-0.571532	54.041000
24.476909	-0.576125	54.196000
24.548150	-0.574399	54.242000
24.569339	-0.522323	54.397000
24.590473	-0.489483	54.443000
24.611794	-0.454061	54.489000
24.632697	-0.405725	54.535000
24.653815	-0.361129	54.581000
24.674101	-0.319743	54.627000
24.695634	-0.282153	54.672000
24.715966	-0.247552	54.718000
24.736977	-0.221224	54.764000
24.758289	-0.200856	54.810000
24.779322	-0.196965	54.855000
24.800423	-0.195431	54.901000
24.820986	-0.196667	54.947000
24.841777	-0.208776	54.993000
24.863460	-0.216509	55.038000
24.884153	-0.230269	55.085000
24.956203	-0.277186	55.130000
24.977546	-0.292667	55.286000
25.048193	-0.320989	55.332000
25.069073	-0.396064	55.487000
25.089404	-0.409582	55.533000
25.110427	-0.405665	55.579000
25.131534	-0.379920	55.625000
25.152327	-0.333767	55.671000
25.172875	-0.286423	55.716000
25.193509	-0.250828	55.762000
25.214876	-0.237335	55.807000
25.235808	-0.243019	55.853000
25.257116	-0.267272	55.899000
25.278709	-0.313368	55.945000
25.299759	-0.367263	55.991000
25.320605	-0.422882	56.037000
25.341755	-0.474187	56.082000
25.362372	-0.510353	56.128000
25.383847	-0.536901	56.174000
25.455745	-0.563775	56.220000
25.477245	-0.538117	56.376000
25.548419	-0.497575	56.422000
25.568753	-0.382620	56.579000
25.590444	-0.373175	56.624000
25.611370	-0.372884	56.670000
25.631927	-0.367576	56.716000
25.653511	-0.343161	56.762000
25.674307	-0.314704	56.807000
25.695017	-0.295659	56.853000
25.715715	-0.287740	56.899000
25.736249	-0.288285	56.945000
25.757574	-0.294443	56.990000
25.778565	-0.312748	57.036000
25.799975	-0.335667	57.081000
25.821272	-0.362636	57.127000
25.841645	-0.401341	57.173000
25.862060	-0.446401	57.219000
25.883153	-0.510575	57.265000
25.960026	-0.730308	57.310000
25.980588	-0.791185	57.476000
26.052269	-0.838988	57.522000
26.073241	-0.937278	57.679000
26.093864	-0.947414	57.725000
26.115571	-0.953353	57.771000
26.136443	-0.954253	57.816000
26.156862	-0.960224	57.862000
26.177669	-0.970303	57.907000
26.198242	-0.978656	57.953000
26.219181	-0.986450	57.999000
26.240064	-0.991043	58.044000
26.261344	-0.982912	58.090000
26.283731	-0.969389	58.136000
26.304369	-0.950789	58.182000
26.324878	-0.927954	58.228000
26.346254	-0.901190	58.273000
26.366450	-0.878271	58.319000
26.387602	-0.859174	58.365000
26.653237	-0.839516	58.411000
26.674331	-0.685678	58.991000
26.695461	-0.685344	59.037000
26.716779	-0.707453	59.083000
26.737918	-0.741428	59.128000
26.758584	-0.774089	59.174000
26.779639	-0.798872	59.220000
26.800029	-0.812053	59.266000
26.821214	-0.811210	59.311000
26.841677	-0.807355	59.357000
26.863356	-0.794668	59.402000
26.884363	-0.777002	59.448000
26.905377	-0.747522	59.494000
26.976239	-0.612004	59.540000
26.997619	-0.552382	59.696000
27.068671	-0.478682	59.742000
27.089747	-0.366980	59.897000
27.110339	-0.401380	59.943000
27.131753	-0.440276	59.989000
27.151927	-0.489838	60.035000
27.172752	-0.542394	60.081000
27.193996	-0.590986	60.127000
27.215800	-0.636682	60.172000
27.237079	-0.676522	60.218000
27.258658	-0.697105	60.264000
27.279450	-0.681227	60.310000
27.300301	-0.623886	60.355000
27.320109	-0.550050	60.401000
27.341355	-0.478064	60.447000
27.362783	-0.402979	60.493000
27.383766	-0.327743	60.538000
27.405378	-0.249157	60.585000
27.476717	-0.155782	60.630000
27.496940	-0.183579	60.786000
27.567720	-0.235610	60.832000
27.589174	-0.417141	60.987000
27.610945	-0.464258	61.033000
27.632080	-0.506723	61.079000
27.652631	-0.541383	61.125000
27.672872	-0.574380	61.171000
27.694116	-0.606204	61.216000
27.715159	-0.634764	61.262000
27.736297	-0.660536	61.308000
27.757908	-0.685133	61.354000
27.778675	-0.711082	61.399000
27.799109	-0.736701	61.445000
27.819989	-0.757768	61.491000
27.840622	-0.764044	61.537000
27.861669	-0.746570	61.583000
27.882622	-0.704465	61.628000
27.903671	-0.663192	61.674000
27.975849	-0.684158	61.720000
27.996804	-0.730782	61.877000
28.068844	-0.778065	61.922000
28.089614	-0.862872	62.079000
28.110765	-0.855468	62.124000
28.132475	-0.850075	62.170000
28.152832	-0.845710	62.216000
28.174065	-0.842400	62.262000
28.194920	-0.840903	62.307000
28.215414	-0.853160	62.353000
28.236518	-0.864360	62.399000
28.257229	-0.875766	62.445000
28.278850	-0.885242	62.490000
28.300468	-0.897484	62.536000
28.321127	-0.917771	62.581000
28.341874	-0.942314	62.627000
28.362275	-0.973130	62.673000
28.382429	-1.005015	62.719000
28.403925	-1.036839	62.764000
28.480157	-1.153731	62.810000
28.501115	-1.148461	62.976000
28.573094	-1.106143	63.022000
28.594540	-0.839204	63.179000
28.615872	-0.788645	63.225000
28.636262	-0.762376	63.271000
28.657199	-0.750641	63.317000
28.678290	-0.746968	63.362000
28.698888	-0.742855	63.408000
28.719424	-0.741317	63.454000
28.740574	-0.743969	63.500000
28.762716	-0.756735	63.546000
28.783542	-0.765077	63.592000
28.804451	-0.771801	63.638000
28.824247	-0.770118	63.684000
28.845442	-0.753111	63.729000
28.866867	-0.716801	63.775000
28.888016	-0.686112	63.820000
28.909113	-0.672509	63.866000
29.174445	-0.545669	63.912000
29.195183	-0.604139	64.491000
29.216981	-0.590208	64.537000
29.238172	-0.561811	64.583000
29.258654	-0.528271	64.629000
29.279609	-0.507332	64.674000
29.299803	-0.474238	64.720000
29.320700	-0.432428	64.766000
29.342045	-0.388856	64.812000
29.363391	-0.372082	64.857000
29.384553	-0.390499	64.903000
29.405270	-0.427660	64.949000
29.425808	-0.464974	64.995000
29.497867	-0.495064	65.041000
29.519068	-0.475840	65.197000
29.590994	-0.472780	65.242000
29.611874	-0.444102	65.399000
29.632600	-0.403161	65.445000
29.653023	-0.367182	65.491000
29.673995	-0.335141	65.536000
29.694977	-0.320495	65.582000
29.716463	-0.308782	65.628000
29.738042	-0.319592	65.674000
29.759103	-0.349486	65.720000
29.779429	-0.377561	65.766000
29.800326	-0.395227	65.812000
29.821252	-0.394546	65.857000
29.841936	-0.372763	65.903000
29.863607	-0.343776	65.949000
29.884591	-0.307909	65.995000
29.905323	-0.285449	66.040000
29.927036	-0.270220	66.086000
29.997563	-0.286928	66.132000
30.018533	-0.310216	66.288000
30.090158	-0.331074	66.333000
30.111297	-0.206066	66.489000
30.132478	-0.122760	66.535000
30.152895	-0.057603	66.581000
30.173318	-0.008636	66.627000
30.194146	0.036047	66.672000
30.215421	0.093533	66.718000
30.236457	0.142910	66.764000
30.258005	0.176184	66.810000
30.279323	0.213179	66.855000
30.299682	0.252851	66.901000
30.321101	0.297825	66.947000
30.341981	0.336616	66.993000
30.362463	0.359788	67.039000
30.383597	0.374946	67.084000
30.405032	0.375666	67.130000
30.425948	0.379114	67.176000
30.497220	0.303120	67.222000
30.517665	0.300757	67.378000
30.588774	0.310011	67.424000
30.610677	0.390051	67.579000
30.631793	0.433601	67.625000
30.652758	0.491852	67.671000
30.673883	0.551299	67.717000
30.694458	0.612710	67.763000
30.714892	0.667649	67.808000
30.735462	0.705548	67.854000
30.757251	0.733401	67.900000
30.778473	0.754213	67.945000
30.799356	0.773883	67.992000
30.820345	0.798649	68.038000
30.840831	0.836418	68.083000
30.862238	0.868605	68.129000
30.883242	0.912633	68.175000
30.904233	0.968129	68.221000
30.926214	1.025212	68.266000
31.000943	1.172127	68.312000
31.021986	1.181061	68.477000
31.093381	1.173792	68.522000
31.114136	1.082777	68.679000
31.135167	1.033148	68.725000
31.156034	0.981304	68.771000
31.175807	0.928647	68.816000
31.197818	0.886096	68.862000
31.219315	0.856596	68.908000
31.239920	0.850683	68.953000
31.261230	0.851646	68.999000
31.281687	0.854908	69.045000
31.302012	0.847039	69.091000
31.323608	0.857024	69.136000
31.344597	0.873486	69.182000
31.366023	0.892345	69.228000
31.387363	0.910800	69.273000
31.407682	0.932412	69.319000
31.428683	0.945310	69.365000
31.695414	0.869756	69.411000
31.716429	0.999803	69.991000
31.737264	1.006647	70.037000
31.757839	1.005430	70.083000
31.778440	1.009751	70.129000
31.799252	1.040825	70.175000
31.820789	1.080303	70.221000
31.841970	1.120074	70.266000
31.863428	1.146509	70.312000
31.884160	1.153546	70.358000
31.904664	1.155908	70.403000
31.925778	1.157872	70.450000
31.946458	1.155877	70.495000
32.018423	1.201449	70.541000
32.040206	1.258303	70.697000
32.110976	1.303988	70.743000
32.131320	1.454560	70.899000
32.151804	1.512219	70.945000
32.172970	1.537231	70.991000
32.195116	1.546353	71.036000
32.216164	1.554232	71.082000
32.236693	1.568396	71.128000
32.257668	1.585498	71.174000
32.278441	1.605839	71.220000
32.299221	1.614344	71.266000
32.320212	1.627807	71.311000
32.341672	1.636646	71.357000
32.363120	1.635682	71.402000
32.384211	1.624349	71.449000
32.404864	1.609080	71.494000
32.425456	1.607500	71.540000
32.446731	1.591938	71.586000
32.518053	1.504360	71.632000
32.539532	1.508383	71.788000
32.610781	1.526878	71.834000
32.631419	1.673306	71.989000
32.652398	1.738344	72.035000
32.674023	1.817664	72.081000
32.694604	1.903153	72.127000
32.715145	1.983987	72.173000
32.736640	2.050567	72.219000
32.757523	2.095035	72.265000
32.778334	2.129814	72.310000
32.799310	2.154179	72.356000
32.820224	2.170832	72.402000
32.842041	2.173861	72.448000
32.863040	2.181644	72.494000
32.884535	2.188197	72.540000
32.905826	2.195203	72.585000
32.926325	2.203696	72.631000
32.947132	2.220198	72.677000
33.017747	2.207662	72.723000
33.038742	2.215072	72.878000
33.110982	2.232759	72.924000
33.131662	2.361832	73.079000
33.152392	2.373463	73.125000
33.172787	2.361822	73.171000
33.193640	2.323146	73.217000
33.214912	2.262090	73.263000
33.235868	2.193147	73.309000
33.257348	2.133151	73.354000
33.278596	2.082646	73.400000
33.298838	2.036656	73.446000
33.320214	1.990323	73.492000
33.341408	1.944161	73.538000
33.361889	1.894028	73.584000
33.383302	1.851032	73.629000
33.404720	1.815879	73.675000
33.425277	1.794035	73.721000
33.446749	1.771831	73.767000
33.521639	1.698771	73.812000
33.542823	1.689487	73.977000
33.614394	1.681497	74.022000
33.634801	1.600423	74.179000
33.656042	1.565242	74.225000
33.676714	1.550613	74.271000
33.698470	1.549882	74.317000
33.719995	1.559982	74.362000
33.740572	1.578219	74.408000
33.761190	1.631477	74.454000
33.782596	1.682178	74.500000
33.803265	1.740754	74.546000
33.824621	1.793103	74.591000
33.845693	1.848914	74.637000
33.867199	1.919019	74.683000
33.887741	1.990812	74.729000
33.908209	2.059430	74.775000
33.929101	2.114159	74.821000
33.949627	2.160934	74.866000
34.215482	2.232467	74.912000
34.235816	2.389449	75.492000
34.257591	2.428079	75.537000
34.278191	2.458779	75.583000
34.299716	2.495002	75.628000
34.321272	2.538555	75.674000
34.341848	2.587513	75.720000
34.362378	2.650441	75.766000
34.383339	2.707176	75.811000
34.403996	2.756936	75.857000
34.425098	2.803036	75.903000
34.446631	2.859507	75.949000
34.467680	2.907126	75.995000
34.538364	3.150064	76.041000
34.559336	3.155456	76.196000
34.630078	3.138560	76.242000
34.651634	3.159561	76.398000
34.673328	3.223828	76.444000
34.694672	3.300201	76.490000
34.715821	3.389197	76.536000
34.736547	3.481337	76.581000
34.757331	3.563117	76.628000
34.778103	3.628401	76.673000
34.799194	3.693002	76.719000
34.820201	3.764498	76.765000
34.842106	3.843029	76.811000
34.862733	3.915303	76.856000
34.883509	3.999493	76.902000
34.904408	4.078005	76.948000
34.925303	4.158698	76.993000
34.945814	4.231408	77.039000
34.966794	4.302938	77.085000
35.038415	4.490457	77.131000
35.058726	4.518245	77.286000
35.130985	4.534487	77.332000
35.151919	4.484107	77.488000
35.172649	4.457252	77.534000
35.193997	4.423390	77.580000
35.215542	4.385869	77.625000
35.236275	4.351966	77.671000
35.256979	4.321512	77.717000
35.277751	4.300029	77.763000
35.298227	4.254607	77.808000
35.319457	4.201138	77.854000
35.340440	4.185536	77.900000
35.362027	4.163861	77.945000
35.382595	4.129366	77.991000
35.403026	4.082315	78.037000
35.423548	4.042237	78.083000
35.444562	4.012443	78.129000
35.465542	3.995567	78.174000
35.538550	3.934114	78.220000
35.559680	3.933051	78.377000
35.630978	3.936936	78.423000
35.651966	4.002198	78.579000
35.672565	4.025245	78.625000
35.693622	4.041721	78.671000
35.715400	4.051321	78.717000
35.736353	4.065203	78.762000
35.756614	4.087983	78.808000
35.777456	4.116084	78.854000
35.798313	4.139455	78.900000
35.819073	4.166677	78.945000
35.840134	4.192784	78.991000
35.861713	4.215504	79.037000
35.882577	4.233099	79.082000
35.903365	4.242488	79.128000
35.924494	4.246375	79.174000
35.944840	4.273790	79.220000
35.966027	4.321836	79.266000
36.042823	4.665987	79.311000
36.063726	4.764098	79.477000
36.134057	4.846463	79.523000
36.155862	5.001057	79.679000
36.176846	5.067056	79.725000
36.198283	5.133556	79.771000
36.219347	5.189269	79.817000
36.239731	5.238755	79.863000
36.261060	5.306605	79.908000
36.281613	5.410797	79.954000
36.302386	5.522541	80.000000
36.324168	5.587105	80.045000
36.345063	5.612363	80.091000
36.365690	5.613266	80.137000
36.386208	5.607755	80.182000
36.407607	5.604701	80.228000
36.428379	5.614126	80.274000
36.448752	5.651351	80.320000
36.470281	5.684263	80.366000
36.736313	6.030024	80.411000
36.757630	6.424105	80.992000
36.778914	6.520129	81.037000
36.800082	6.629234	81.084000
36.820343	6.736197	81.129000
36.841856	6.836206	81.175000
36.862606	6.921903	81.221000
36.883858	6.981877	81.267000
36.904918	7.012438	81.313000
36.925552	7.028748	81.358000
36.947416	7.029864	81.404000
36.968380	7.013189	81.450000
36.989083	7.000261	81.496000
37.059594	7.046104	81.542000
37.080862	7.084760	81.697000
37.152314	7.127817	81.743000
37.173993	7.370072	81.899000
37.195126	7.477512	81.945000
37.215384	7.577285	81.991000
37.235891	7.662762	82.037000
37.256986	7.733105	82.082000
37.277770	7.786680	82.128000
37.299091	7.844348	82.174000
37.320755	7.902713	82.220000
37.342026	7.964923	82.266000
37.363029	8.040628	82.311000
37.383552	8.122248	82.358000
37.403944	8.204555	82.404000
37.424309	8.273284	82.449000
37.445484	8.331485	82.495000
37.466829	8.378540	82.541000
37.488531	8.430783	82.587000
37.559476	8.619235	82.632000
37.580244	8.665918	82.788000
37.651716	8.748525	82.834000
37.672715	9.087627	82.991000
37.694163	9.168163	83.036000
37.715788	9.223836	83.082000
37.736487	9.286591	83.128000
37.756518	9.361499	83.174000
37.777682	9.447973	83.220000
37.798481	9.544140	83.265000
37.819730	9.622386	83.311000
37.841032	9.676574	83.357000
37.861974	9.721405	83.403000
37.883264	9.780120	83.448000
37.903825	9.855447	83.494000
37.924605	9.936155	83.540000
37.945558	9.986176	83.586000
37.966542	9.998681	83.631000
37.987483	9.986755	83.677000
38.059354	10.091800	83.723000
38.080357	10.181314	83.879000
38.151044	10.266819	83.924000
38.172005	10.563183	84.081000
38.193442	10.661567	84.126000
38.214552	10.762202	84.172000
38.235616	10.859076	84.218000
38.256719	10.952234	84.263000
38.277437	11.041615	84.309000
38.299016	11.130283	84.355000
38.319516	11.214495	84.400000
38.340150	11.294449	84.446000
38.361149	11.383936	84.492000
38.382743	11.487521	84.538000
38.403262	11.604202	84.584000
38.424268	11.728674	84.629000
38.445471	11.835610	84.675000
38.466081	11.916656	84.721000
38.487203	11.981646	84.767000
38.562605	12.048262	84.812000
38.583562	12.060371	84.977000
38.655874	12.081491	85.023000
38.677330	12.301123	85.180000
38.697469	12.414299	85.225000
38.718345	12.543844	85.271000
38.739178	12.669439	85.317000
38.760519	12.789491	85.363000
38.781510	12.893045	85.409000
38.802267	12.995126	85.455000
38.823543	13.101356	85.500000
38.845187	13.221547	85.546000
38.865825	13.349968	85.592000
38.886682	13.483562	85.638000
38.907573	13.594293	85.683000
38.927930	13.684064	85.730000
38.949275	13.749891	85.776000
38.970785	13.822840	85.821000
38.992563	13.891681	85.867000
39.256367	14.515833	85.913000
39.277316	14.899376	86.492000
39.298830	14.966571	86.538000
39.319813	15.025312	86.584000
39.340493	15.046030	86.629000
39.361319	15.030482	86.675000
39.382257	15.000527	86.721000
39.403386	14.982986	86.767000
39.425622	14.983294	86.813000
39.446325	15.014628	86.858000
39.466994	15.063114	86.904000
39.487389	15.128787	86.950000
39.508273	15.210014	86.995000
39.579579	15.583208	87.041000
39.601408	15.707810	87.196000
39.673137	15.844394	87.242000
39.693225	16.317170	87.398000
39.714501	16.471604	87.444000
39.735373	16.628746	87.490000
39.755942	16.797988	87.536000
39.777482	16.968524	87.582000
39.798535	17.137494	87.627000
39.819622	17.307711	87.673000
39.840440	17.456018	87.719000
39.860848	17.591512	87.765000
39.881985	17.704525	87.811000
39.902550	17.793546	87.856000
39.924474	17.866013	87.902000
39.945711	17.929877	87.948000
39.966384	17.995161	87.993000
39.986868	18.074515	88.039000
40.007886	18.153720	88.085000
40.079331	18.367867	88.131000
40.100103	18.453043	88.286000
40.171985	18.544270	88.332000
40.193111	18.932196	88.489000
40.213522	19.056050	88.534000
40.234563	19.188392	88.580000
40.255558	19.329828	88.626000
40.276519	19.464737	88.672000
40.298136	19.590770	88.718000
40.319419	19.715295	88.763000
40.340096	19.840829	88.809000
40.360607	19.990813	88.855000
40.381644	20.154468	88.901000
40.402520	20.319909	88.946000
40.423761	20.501796	88.992000
40.444794	20.688245	89.038000
40.466573	20.869911	89.083000
40.487072	21.042492	89.129000
40.507929	21.196819	89.175000
40.579328	21.654214	89.221000
40.600488	21.785120	89.378000
40.672482	21.913334	89.424000
40.693681	22.367436	89.580000
40.714464	22.496546	89.626000
40.734937	22.620455	89.671000
40.755740	22.740564	89.717000
40.776370	22.862912	89.763000
40.797131	23.004526	89.809000
40.819078	23.148709	89.854000
40.840419	23.297808	89.900000
40.861211	23.450085	89.946000
40.882037	23.599020	89.992000
40.902974	23.737665	90.037000
40.923462	23.871497	90.083000
40.944396	24.006400	90.129000
40.965733	24.141003	90.175000
40.987331	24.273201	90.220000
41.008084	24.403751	90.267000
41.113251	24.650518	90.312000
41.184988	25.036165	90.545000
41.206478	26.047508	90.701000
41.227347	26.283321	90.746000
41.248476	26.500346	90.792000
41.269141	26.701094	90.838000
41.290243	26.892729	90.884000
41.311753	27.079389	90.930000
41.332441	27.266135	90.976000
41.353931	27.448934	91.022000
41.375334	27.632452	91.067000
41.395933	27.803763	91.113000
41.416506	27.953561	91.159000
41.437362	28.085110	91.205000
41.457992	28.212675	91.250000
41.479498	28.338332	91.296000
41.500539	28.469100	91.342000
41.521796	28.614204	91.388000
41.777459	30.264232	91.434000
41.798496	31.386713	91.992000
41.819134	31.587556	92.038000
41.839791	31.809176	92.084000
41.860406	32.021975	92.130000
41.882204	32.225852	92.176000
41.903587	32.426838	92.221000
41.925097	32.623247	92.267000
41.946042	32.814467	92.313000
41.966387	32.996660	92.359000
41.986779	33.154479	92.405000
42.007763	33.312421	92.450000
42.028489	33.475793	92.496000
42.101052	34.067475	92.542000
42.121893	34.252477	92.698000
42.192892	34.449417	92.744000
42.214102	35.241944	92.900000
42.235712	35.506550	92.946000
42.256442	35.773268	92.992000
42.278213	36.048863	93.038000
42.299792	36.324289	93.084000
42.320211	36.602667	93.129000
42.340464	36.877754	93.175000
42.361540	37.155269	93.221000
42.382343	37.425708	93.267000
42.403603	37.686154	93.312000
42.424759	37.911827	93.358000
42.446027	38.100544	93.404000
42.466711	38.280840	93.449000
42.487310	38.482255	93.495000
42.508436	38.702678	93.541000
42.529420	38.927986	93.587000
42.601018	39.607718	93.633000
42.622539	39.794976	93.789000
42.693404	40.004162	93.835000
42.714353	40.759538	93.991000
42.734576	41.002555	94.037000
42.755471	41.253319	94.083000
42.776908	41.509741	94.128000
42.797976	41.777058	94.174000
42.820373	42.043258	94.220000
42.840903	42.307278	94.266000
42.861376	42.551232	94.312000
42.882674	42.781857	94.357000
42.903316	43.006338	94.403000
42.923823	43.222425	94.449000
42.945160	43.433756	94.494000
42.966566	43.646220	94.540000
42.987557	43.858371	94.586000
43.008187	44.074552	94.632000
43.028913	44.306928	94.678000
43.100001	45.071532	94.724000
43.121476	45.306837	94.879000
43.193201	45.556885	94.925000
43.213966	46.445933	95.080000
43.234815	46.689614	95.126000
43.255425	46.935404	95.172000
43.276616	47.185179	95.218000
43.298007	47.433957	95.263000
43.319325	47.681235	95.309000
43.340331	47.927934	95.355000
43.361223	48.179167	95.401000
43.381292	48.442799	95.446000
43.401788	48.728030	95.492000
