Sample	2mm tape 
date	07/01/2025
	
Temperature (K)	77.00
Angle (deg.)	0.000000
field / T	0.025000
	
		
Approx. trace time (s)	120.0	
		
Current / A	V1  -sample/ uV	time/s
-0.022571	-2.958391	0.000000
-0.022648	-3.074518	0.140000
-0.022266	-3.106220	0.186000
-0.022392	-2.971140	0.342000
-0.022326	-2.965137	0.387000
-0.021884	-2.968261	0.433000
-0.021752	-2.964233	0.479000
-0.022410	-2.944107	0.525000
-0.022332	-2.907069	0.570000
-0.022248	-2.860140	0.616000
-0.022553	-2.817742	0.662000
-0.022284	-2.787360	0.708000
-0.008159	-2.786275	0.753000
0.004569	-2.823643	0.799000
0.034341	-2.907541	0.844000
0.054893	-3.002116	0.890000
0.076920	-3.082962	0.936000
0.097879	-3.138649	0.982000
0.117427	-3.169864	1.028000
0.383041	-3.057185	1.074000
0.403558	-3.050719	1.652000
0.423395	-3.068536	1.697000
0.443493	-3.084488	1.743000
0.465200	-3.098695	1.789000
0.486621	-3.112969	1.835000
0.506814	-3.131392	1.881000
0.527736	-3.158104	1.926000
0.549498	-3.190861	1.972000
0.570015	-3.213480	2.018000
0.591169	-3.210365	2.063000
0.611898	-3.188418	2.109000
0.633575	-3.156311	2.155000
0.706039	-3.046293	2.200000
0.725423	-3.013941	2.357000
0.796060	-2.977445	2.402000
0.816409	-2.902250	2.558000
0.837982	-2.877762	2.604000
0.859429	-2.851969	2.650000
0.880616	-2.825207	2.696000
0.901683	-2.787826	2.741000
0.921599	-2.723520	2.787000
0.944041	-2.637773	2.833000
0.963709	-2.550603	2.878000
0.984894	-2.471506	2.924000
1.006209	-2.384133	2.970000
1.027526	-2.295639	3.015000
1.047981	-2.214410	3.061000
1.069153	-2.147626	3.107000
1.089997	-2.095006	3.153000
1.110800	-2.051842	3.199000
1.130606	-2.013137	3.244000
1.203231	-1.908925	3.290000
1.224735	-1.905619	3.446000
1.296095	-1.897124	3.492000
1.315775	-1.913316	3.647000
1.337104	-1.938621	3.693000
1.358461	-1.944582	3.739000
1.379770	-1.941826	3.785000
1.400694	-1.933805	3.830000
1.422079	-1.923770	3.876000
1.442317	-1.925351	3.921000
1.463677	-1.932811	3.967000
1.484535	-1.943638	4.013000
1.504369	-1.954944	4.059000
1.526916	-1.967179	4.105000
1.547545	-1.976305	4.151000
1.568686	-1.981788	4.196000
1.589709	-1.948282	4.242000
1.609098	-1.900471	4.288000
1.630280	-1.900047	4.333000
1.703875	-2.054005	4.379000
1.725666	-2.105243	4.540000
1.796963	-2.148367	4.586000
1.818814	-2.102284	4.742000
1.839360	-2.061600	4.788000
1.860771	-2.027150	4.833000
1.881605	-1.997574	4.880000
1.902127	-1.961309	4.925000
1.923242	-1.925845	4.971000
1.945210	-1.902479	5.017000
1.965128	-1.899759	5.063000
1.986543	-1.905629	5.108000
2.007116	-1.909657	5.154000
2.027512	-1.897468	5.199000
2.048702	-1.865809	5.245000
2.070345	-1.825339	5.291000
2.091543	-1.790666	5.337000
2.112734	-1.761186	5.382000
2.133634	-1.737416	5.428000
2.208569	-1.626532	5.474000
2.231042	-1.587511	5.640000
2.302193	-1.545481	5.686000
2.323340	-1.439639	5.842000
2.343485	-1.392315	5.888000
2.364343	-1.352412	5.933000
2.385401	-1.319348	5.979000
2.407526	-1.302685	6.025000
2.427619	-1.316036	6.070000
2.448605	-1.364458	6.116000
2.469104	-1.434652	6.162000
2.489328	-1.510436	6.208000
2.510459	-1.576563	6.253000
2.532444	-1.631250	6.299000
2.553211	-1.680230	6.344000
2.574029	-1.724034	6.390000
2.594450	-1.760292	6.435000
2.615820	-1.785037	6.481000
2.636001	-1.805496	6.527000
2.902673	-1.960163	6.573000
2.922334	-1.952238	7.152000
2.943456	-1.927834	7.198000
2.964615	-1.895958	7.244000
2.986137	-1.863093	7.290000
3.007785	-1.841233	7.335000
3.029002	-1.832577	7.381000
3.048909	-1.827484	7.426000
3.069873	-1.820448	7.472000
3.091051	-1.810122	7.518000
3.111859	-1.800016	7.564000
3.132524	-1.805081	7.609000
3.154158	-1.822467	7.655000
3.225378	-1.816112	7.701000
3.247193	-1.801336	7.857000
3.317904	-1.798468	7.902000
3.339218	-1.694826	8.058000
3.360242	-1.612298	8.104000
3.380609	-1.539025	8.150000
3.401546	-1.484259	8.196000
3.422182	-1.448559	8.242000
3.443460	-1.435596	8.287000
3.464140	-1.451318	8.333000
3.485638	-1.498868	8.379000
3.506616	-1.567957	8.424000
3.527465	-1.631878	8.470000
3.548633	-1.670437	8.516000
3.569437	-1.694257	8.562000
3.590093	-1.722239	8.607000
3.610388	-1.769396	8.653000
3.631262	-1.824182	8.699000
3.653211	-1.875318	8.744000
3.724951	-1.908137	8.790000
3.745378	-1.903837	8.946000
3.816774	-1.897377	8.991000
3.837870	-1.795748	9.148000
3.859609	-1.759719	9.193000
3.880453	-1.728505	9.239000
3.901495	-1.694715	9.285000
3.922288	-1.664576	9.331000
3.942805	-1.647016	9.376000
3.962712	-1.641164	9.422000
3.984231	-1.645373	9.468000
4.005459	-1.651547	9.514000
4.027178	-1.651335	9.559000
4.047969	-1.640503	9.605000
4.068939	-1.620620	9.651000
4.088959	-1.603005	9.696000
4.110835	-1.593943	9.742000
4.131608	-1.589097	9.788000
4.152076	-1.584584	9.834000
4.227180	-1.465927	9.879000
4.248056	-1.433028	10.040000
4.319479	-1.416341	10.086000
4.340365	-1.445652	10.242000
4.360533	-1.444757	10.288000
4.381712	-1.426976	10.334000
4.402843	-1.406790	10.379000
4.424362	-1.394016	10.425000
4.444610	-1.394181	10.470000
4.466053	-1.410430	10.516000
4.486358	-1.424048	10.562000
4.507580	-1.425749	10.608000
4.528379	-1.404055	10.654000
4.549616	-1.370310	10.700000
4.570765	-1.337378	10.745000
4.591939	-1.301063	10.791000
4.612948	-1.286365	10.837000
4.633650	-1.305025	10.883000
4.654034	-1.349413	10.928000
4.731453	-1.495258	10.974000
4.751990	-1.514236	11.140000
4.823790	-1.523544	11.186000
4.844743	-1.481044	11.342000
4.865507	-1.481246	11.388000
4.887445	-1.482523	11.433000
4.907847	-1.483670	11.479000
4.928726	-1.476289	11.525000
4.949800	-1.454429	11.571000
4.970663	-1.423387	11.616000
4.991530	-1.397100	11.662000
5.012179	-1.379545	11.708000
5.033413	-1.365957	11.754000
5.054663	-1.347185	11.799000
5.075471	-1.322403	11.845000
5.095981	-1.297257	11.890000
5.116942	-1.295262	11.936000
5.136987	-1.328612	11.982000
5.158010	-1.395000	12.028000
5.423463	-1.609646	12.073000
5.444503	-1.464008	12.652000
5.466570	-1.443066	12.698000
5.487470	-1.407441	12.744000
5.508097	-1.367159	12.790000
5.529038	-1.336011	12.835000
5.549537	-1.329388	12.881000
5.570501	-1.332648	12.927000
5.591513	-1.330981	12.972000
5.613151	-1.327140	13.018000
5.634351	-1.322463	13.063000
5.655160	-1.320195	13.109000
5.676047	-1.322069	13.155000
5.747067	-1.377780	13.201000
5.767776	-1.402980	13.357000
5.840516	-1.430575	13.403000
5.861314	-1.415427	13.559000
5.882216	-1.412074	13.604000
5.902946	-1.429948	13.650000
5.923940	-1.449361	13.696000
5.944955	-1.462368	13.742000
5.965796	-1.443824	13.787000
5.987078	-1.395313	13.833000
6.007967	-1.344766	13.879000
6.029436	-1.308220	13.925000
6.049888	-1.283955	13.971000
6.070522	-1.245091	14.016000
6.091206	-1.219583	14.062000
6.112330	-1.218882	14.108000
6.134045	-1.210358	14.153000
6.155057	-1.189746	14.199000
6.175448	-1.156001	14.245000
6.246094	-1.090106	14.291000
6.267103	-1.087012	14.446000
6.339117	-1.078009	14.492000
6.360434	-0.989676	14.647000
6.381189	-0.964393	14.693000
6.402139	-0.930576	14.739000
6.422823	-0.901755	14.785000
6.443146	-0.888444	14.831000
6.464148	-0.881126	14.877000
6.485783	-0.874523	14.922000
6.507072	-0.879659	14.968000
6.528231	-0.893727	15.014000
6.549059	-0.921357	15.059000
6.569917	-0.962415	15.105000
6.591031	-1.018306	15.151000
6.611578	-1.082268	15.196000
6.633341	-1.133202	15.242000
6.654990	-1.175401	15.288000
6.675411	-1.208833	15.334000
6.749824	-1.348059	15.379000
6.769997	-1.386899	15.541000
6.841291	-1.395833	15.587000
6.862027	-1.452839	15.742000
6.882807	-1.501098	15.788000
6.903940	-1.544587	15.834000
6.925383	-1.586012	15.880000
6.946138	-1.623768	15.925000
6.966819	-1.663729	15.971000
6.988215	-1.711700	16.017000
7.008296	-1.765570	16.063000
7.029515	-1.819468	16.108000
7.050875	-1.869842	16.154000
7.072266	-1.917057	16.200000
7.093019	-1.951455	16.245000
7.113499	-1.976941	16.291000
7.133908	-1.991815	16.337000
7.154642	-1.986420	16.382000
7.176137	-1.971111	16.428000
7.252597	-2.058367	16.474000
7.273030	-2.109713	16.640000
7.345214	-2.167054	16.686000
7.365993	-2.305754	16.842000
7.387130	-2.318337	16.888000
7.407912	-2.328452	16.934000
7.428882	-2.332136	16.979000
7.449715	-2.324894	17.025000
7.470748	-2.311543	17.071000
7.491061	-2.295971	17.117000
7.512745	-2.284120	17.162000
7.533575	-2.264228	17.208000
7.554182	-2.220547	17.254000
7.575351	-2.163673	17.299000
7.595872	-2.115221	17.345000
7.616711	-2.080021	17.391000
7.637825	-2.061910	17.436000
7.659229	-2.049185	17.482000
7.680666	-2.043651	17.528000
7.945371	-2.213763	17.574000
7.965977	-1.984037	18.153000
7.987302	-1.948932	18.198000
8.008239	-1.939544	18.244000
8.028923	-1.955014	18.290000
8.049687	-1.987686	18.336000
8.070689	-2.017341	18.381000
8.092295	-2.039437	18.427000
8.113491	-2.053198	18.472000
8.133882	-2.061252	18.518000
8.154649	-2.066428	18.564000
8.175186	-2.071957	18.610000
8.195458	-2.079910	18.655000
8.267907	-2.145225	18.701000
8.289883	-2.167518	18.857000
8.360856	-2.187554	18.903000
8.381674	-2.221020	19.059000
8.402697	-2.211102	19.105000
8.423517	-2.188250	19.151000
8.444356	-2.152962	19.197000
8.465785	-2.107792	19.243000
8.487277	-2.052465	19.288000
8.508540	-1.997226	19.334000
8.529009	-1.952480	19.380000
8.549217	-1.914169	19.425000
8.570237	-1.879170	19.471000
8.590976	-1.849193	19.516000
8.612486	-1.820664	19.562000
8.634042	-1.797063	19.608000
8.654194	-1.771034	19.654000
8.674887	-1.732446	19.699000
8.696006	-1.678364	19.745000
8.766534	-1.505913	19.791000
8.788224	-1.482694	19.946000
8.859749	-1.467895	19.992000
8.880772	-1.460400	20.148000
8.901365	-1.478630	20.194000
8.922066	-1.504808	20.239000
8.943069	-1.518441	20.285000
8.964399	-1.532261	20.331000
8.986317	-1.562602	20.376000
9.006050	-1.598064	20.422000
9.026603	-1.584361	20.468000
9.047382	-1.498135	20.514000
9.068219	-1.410591	20.559000
9.089144	-1.343854	20.605000
9.111006	-1.293028	20.650000
9.131532	-1.261340	20.696000
9.152198	-1.247511	20.742000
9.173358	-1.256613	20.788000
9.193811	-1.272964	20.833000
9.268147	-1.344434	20.880000
9.288903	-1.384864	21.041000
9.360758	-1.434521	21.087000
9.382275	-1.490816	21.242000
9.403765	-1.499484	21.288000
9.424311	-1.536794	21.334000
9.444999	-1.597771	21.380000
9.465706	-1.667323	21.426000
9.486347	-1.732678	21.471000
9.507285	-1.789774	21.517000
9.528857	-1.838210	21.563000
9.550193	-1.877943	21.608000
9.570993	-1.910973	21.654000
9.591600	-1.931008	21.700000
9.611770	-1.928329	21.746000
9.632798	-1.904473	21.791000
9.653957	-1.873643	21.837000
9.675245	-1.844812	21.883000
9.696375	-1.815576	21.928000
9.864229	-1.597984	21.974000
9.884961	-1.553238	22.340000
9.905746	-1.553673	22.386000
9.926413	-1.557494	22.432000
9.946699	-1.562899	22.478000
9.968313	-1.564561	22.523000
9.989756	-1.559452	22.569000
10.010474	-1.557464	22.615000
10.031742	-1.565100	22.660000
10.052110	-1.575725	22.706000
10.072435	-1.575826	22.752000
10.093506	-1.563545	22.797000
10.114800	-1.541185	22.843000
10.136313	-1.508134	22.889000
10.157236	-1.465199	22.935000
10.177298	-1.421796	22.980000
10.198154	-1.380548	23.026000
10.465147	-1.038601	23.072000
10.486051	-0.868256	23.653000
10.506926	-0.847759	23.698000
10.528044	-0.838677	23.744000
10.548548	-0.846785	23.790000
10.570293	-0.870726	23.836000
10.591032	-0.888968	23.882000
10.612388	-0.890791	23.928000
10.633079	-0.879992	23.973000
10.653461	-0.865148	24.019000
10.674072	-0.856212	24.064000
10.695221	-0.857909	24.110000
10.716290	-0.858561	24.156000
10.787940	-0.799337	24.202000
10.808965	-0.786460	24.358000
10.880358	-0.792665	24.404000
10.900690	-0.884588	24.559000
10.921971	-0.917223	24.605000
10.943826	-0.942159	24.651000
10.965272	-0.951042	24.696000
10.985226	-0.965140	24.742000
11.004888	-0.997837	24.788000
11.026169	-1.017871	24.834000
11.047285	-1.021601	24.879000
11.067933	-1.045122	24.925000
11.089527	-1.087753	24.970000
11.110250	-1.117569	25.016000
11.131269	-1.125515	25.062000
11.151710	-1.123854	25.108000
11.172433	-1.108434	25.153000
11.193716	-1.085124	25.199000
11.214395	-1.075110	25.245000
11.286996	-1.020839	25.290000
11.308185	-0.999489	25.447000
11.378609	-0.984578	25.492000
11.399742	-0.966205	25.648000
11.420980	-0.974781	25.694000
11.442063	-1.008492	25.740000
11.462751	-1.063623	25.785000
11.483402	-1.138653	25.831000
11.504403	-1.236226	25.877000
11.525038	-1.345417	25.923000
11.545715	-1.445479	25.969000
11.567446	-1.520218	26.015000
11.588383	-1.569315	26.060000
11.609576	-1.618689	26.106000
11.630913	-1.669121	26.152000
11.651274	-1.707275	26.197000
11.672050	-1.722238	26.243000
11.692076	-1.704891	26.289000
11.713231	-1.668345	26.334000
11.786949	-1.516078	26.380000
11.808911	-1.477070	26.541000
11.881138	-1.433617	26.587000
11.902114	-1.224440	26.743000
11.922525	-1.195570	26.789000
11.942695	-1.192531	26.834000
11.963845	-1.204144	26.880000
11.984818	-1.217929	26.926000
12.006115	-1.220066	26.971000
12.027581	-1.201877	27.017000
12.048626	-1.167255	27.063000
12.068575	-1.138501	27.108000
12.089958	-1.127765	27.154000
12.110969	-1.131853	27.199000
12.131546	-1.142610	27.245000
12.153384	-1.152180	27.291000
12.174014	-1.176740	27.337000
12.194746	-1.218277	27.383000
12.215602	-1.268014	27.428000
12.292843	-1.467712	27.474000
12.314444	-1.511480	27.641000
12.385544	-1.541140	27.687000
12.405264	-1.550104	27.843000
12.426227	-1.522469	27.888000
12.447257	-1.481114	27.934000
12.468328	-1.434621	27.980000
12.489630	-1.393844	28.026000
12.511239	-1.358229	28.072000
12.531373	-1.319760	28.117000
12.552474	-1.275552	28.163000
12.573191	-1.233776	28.209000
12.594217	-1.198605	28.254000
12.615474	-1.172506	28.300000
12.636940	-1.140570	28.346000
12.657610	-1.101528	28.392000
12.678451	-1.068326	28.437000
12.698861	-1.049357	28.483000
12.720177	-1.053477	28.529000
12.985018	-1.364211	28.574000
13.005958	-1.818948	29.153000
13.027119	-1.861387	29.199000
13.048077	-1.890707	29.245000
13.069713	-1.902649	29.290000
13.090701	-1.872416	29.336000
13.110788	-1.816606	29.382000
13.131481	-1.770162	29.428000
13.152421	-1.737828	29.473000
13.173436	-1.719910	29.519000
13.194814	-1.713272	29.565000
13.216010	-1.719376	29.610000
13.237201	-1.738689	29.656000
13.307927	-1.774849	29.702000
13.329313	-1.774346	29.858000
13.400384	-1.770793	29.903000
13.421922	-1.823147	30.059000
13.443382	-1.872164	30.105000
13.463291	-1.933390	30.151000
13.484015	-1.984435	30.197000
13.504458	-2.027996	30.243000
13.525808	-2.062642	30.288000
13.546910	-2.087959	30.334000
13.568663	-2.097919	30.380000
13.590292	-2.092385	30.426000
13.611407	-2.079103	30.471000
13.631703	-2.060485	30.517000
13.652425	-2.025128	30.563000
13.673439	-1.978454	30.609000
13.694183	-1.935284	30.654000
13.715048	-1.911377	30.700000
13.737005	-1.904780	30.746000
13.808279	-1.962605	30.791000
13.828698	-1.988449	30.948000
13.900208	-2.000653	30.994000
13.920557	-2.048862	31.149000
13.941583	-2.081381	31.195000
13.962960	-2.113024	31.241000
13.984121	-2.144226	31.287000
14.004642	-2.158712	31.332000
14.025659	-2.178309	31.378000
14.046819	-2.217547	31.424000
14.067616	-2.261967	31.469000
14.089615	-2.302703	31.515000
14.110729	-2.336088	31.561000
14.131665	-2.363522	31.607000
14.151814	-2.381840	31.652000
14.171571	-2.395266	31.698000
14.192764	-2.403791	31.743000
14.214014	-2.406335	31.789000
14.235020	-2.392606	31.835000
14.309209	-2.284871	31.880000
14.330395	-2.259891	32.041000
14.401042	-2.243082	32.087000
14.421680	-2.234973	32.243000
14.442783	-2.218721	32.289000
14.463878	-2.200854	32.335000
14.485195	-2.180455	32.380000
14.506743	-2.152770	32.426000
14.527383	-2.118733	32.471000
14.547911	-2.079859	32.517000
14.568738	-2.031357	32.563000
14.589433	-1.974693	32.609000
14.610601	-1.916244	32.655000
14.632010	-1.861650	32.700000
14.653329	-1.812098	32.746000
14.674290	-1.757369	32.791000
14.694581	-1.679781	32.837000
14.715235	-1.602126	32.883000
14.736487	-1.533225	32.929000
14.813186	-1.463715	32.974000
14.833940	-1.478782	33.141000
14.905227	-1.495722	33.187000
14.926095	-1.540695	33.343000
14.947239	-1.552263	33.389000
14.968733	-1.559097	33.434000
14.988950	-1.554444	33.480000
15.009193	-1.543910	33.526000
15.029964	-1.526036	33.571000
15.050944	-1.503752	33.617000
15.072069	-1.479674	33.663000
15.093134	-1.453761	33.709000
15.114087	-1.422038	33.754000
15.135088	-1.380476	33.800000
15.155532	-1.333642	33.846000
15.176275	-1.274561	33.891000
15.197277	-1.203251	33.937000
15.218434	-1.132661	33.983000
15.239532	-1.072656	34.028000
15.505270	-0.987943	34.074000
15.526371	-1.342245	34.653000
15.548074	-1.352094	34.699000
15.568816	-1.353440	34.744000
15.588914	-1.348157	34.790000
15.610091	-1.327609	34.836000
15.631351	-1.300597	34.882000
15.652125	-1.269380	34.927000
15.673324	-1.225867	34.973000
15.693807	-1.188615	35.019000
15.714989	-1.162582	35.065000
15.735605	-1.130465	35.111000
15.756693	-1.087955	35.156000
15.827683	-0.973312	35.202000
15.849027	-0.981009	35.358000
15.921339	-0.999357	35.404000
15.941926	-1.105047	35.559000
15.963208	-1.152948	35.605000
15.983690	-1.186933	35.651000
16.004566	-1.209437	35.697000
16.026072	-1.240081	35.743000
16.046776	-1.288632	35.789000
16.068425	-1.337700	35.834000
16.089265	-1.370290	35.880000
16.109991	-1.380311	35.925000
16.130911	-1.373542	35.971000
16.150861	-1.369983	36.017000
16.171604	-1.365377	36.063000
16.193354	-1.336822	36.108000
16.214730	-1.292897	36.154000
16.235239	-1.238826	36.200000
16.256347	-1.203001	36.246000
16.327300	-1.074227	36.291000
16.348329	-1.037010	36.447000
16.420055	-0.994854	36.493000
16.441305	-0.842891	36.649000
16.462271	-0.820255	36.695000
16.482836	-0.822327	36.740000
16.504240	-0.846847	36.786000
16.524559	-0.881186	36.832000
16.545827	-0.896331	36.878000
16.567164	-0.866932	36.923000
16.588236	-0.810311	36.969000
16.608758	-0.743508	37.015000
16.629296	-0.677893	37.060000
16.650299	-0.630592	37.106000
16.671025	-0.607242	37.152000
16.692496	-0.607697	37.197000
16.713733	-0.622653	37.243000
16.734704	-0.644398	37.289000
16.754738	-0.664815	37.335000
16.829095	-0.700269	37.380000
16.850274	-0.702066	37.542000
16.921853	-0.695645	37.588000
16.942708	-0.624022	37.743000
16.963963	-0.599591	37.789000
16.985031	-0.581930	37.835000
17.005618	-0.565929	37.880000
17.026337	-0.558428	37.926000
17.047157	-0.555794	37.971000
17.067851	-0.547234	38.017000
17.088761	-0.536629	38.063000
17.109683	-0.525135	38.109000
17.131460	-0.493804	38.154000
17.152403	-0.444541	38.200000
17.172645	-0.404618	38.246000
17.193504	-0.399401	38.292000
17.214532	-0.445978	38.338000
17.235383	-0.535568	38.383000
17.256719	-0.637922	38.429000
17.332736	-0.927319	38.474000
17.353600	-0.976618	38.642000
17.425719	-1.017912	38.687000
17.446528	-1.047535	38.843000
17.467550	-1.028789	38.889000
17.488574	-1.003496	38.935000
17.509036	-0.982316	38.980000
17.529843	-0.975523	39.026000
17.551403	-0.979101	39.072000
17.572077	-0.996834	39.118000
17.593305	-1.033624	39.164000
17.614717	-1.073682	39.209000
17.635180	-1.094830	39.255000
17.656015	-1.084579	39.301000
17.677041	-1.068155	39.346000
17.697318	-1.057419	39.392000
17.718818	-1.060034	39.437000
17.739915	-1.085917	39.483000
17.761133	-1.128326	39.529000
18.026775	-1.103830	39.575000
18.047549	-0.940244	40.154000
18.068346	-0.949103	40.199000
18.089066	-0.980004	40.245000
18.110359	-1.027945	40.290000
18.130935	-1.072606	40.336000
18.151719	-1.072576	40.382000
18.173047	-1.022443	40.428000
18.194082	-0.958977	40.474000
18.215171	-0.904925	40.519000
18.235363	-0.863498	40.565000
18.256994	-0.835814	40.611000
18.277630	-0.827665	40.656000
18.349743	-0.864513	40.702000
18.371495	-0.876135	40.858000
18.441604	-0.883127	40.904000
18.462509	-0.798719	41.060000
18.483808	-0.771446	41.106000
18.503871	-0.763574	41.152000
18.525373	-0.773532	41.197000
18.546451	-0.795875	41.243000
18.567198	-0.828779	41.289000
18.588293	-0.867537	41.334000
18.608992	-0.909775	41.380000
18.629799	-0.954374	41.425000
18.650758	-0.998902	41.471000
18.672477	-1.037546	41.517000
18.694016	-1.065571	41.563000
18.714605	-1.076529	41.609000
18.734723	-1.071249	41.654000
18.755499	-1.060947	41.700000
18.776278	-1.052947	41.746000
18.849091	-1.003158	41.791000
18.870493	-0.972257	41.947000
18.941164	-0.930923	41.993000
18.962345	-0.796606	42.149000
18.982871	-0.754712	42.194000
19.003693	-0.708879	42.240000
19.024896	-0.659555	42.286000
19.046290	-0.607954	42.332000
19.067614	-0.560820	42.377000
19.087693	-0.517055	42.423000
19.107956	-0.469173	42.469000
19.129093	-0.429051	42.515000
19.149658	-0.408816	42.560000
19.171031	-0.404638	42.606000
19.192733	-0.404618	42.652000
19.213267	-0.395585	42.697000
19.233452	-0.371665	42.743000
19.254520	-0.323374	42.789000
19.275551	-0.261712	42.835000
19.349437	-0.251768	42.880000
19.370938	-0.276168	43.042000
19.442090	-0.284612	43.088000
19.463120	-0.213352	43.243000
19.484451	-0.216082	43.289000
19.505054	-0.232810	43.335000
19.525905	-0.259980	43.380000
19.546618	-0.297842	43.426000
19.567333	-0.338592	43.472000
19.588266	-0.368898	43.517000
19.610116	-0.385626	43.563000
19.630794	-0.387103	43.609000
19.651380	-0.376251	43.654000
19.672310	-0.369910	43.700000
19.693576	-0.375600	43.746000
19.714653	-0.385328	43.791000
19.735579	-0.396829	43.837000
19.757832	-0.409628	43.883000
19.778649	-0.423422	43.929000
19.853893	-0.457700	43.974000
19.875241	-0.475507	44.142000
19.947076	-0.515014	44.188000
19.967825	-0.798294	44.344000
19.988330	-0.881024	44.389000
20.009029	-0.963061	44.435000
20.030186	-1.037752	44.480000
20.051313	-1.096037	44.526000
20.072814	-1.134195	44.572000
20.093968	-1.158983	44.618000
20.114706	-1.177915	44.663000
20.135545	-1.195112	44.709000
20.155931	-1.212314	44.755000
20.176604	-1.227062	44.800000
20.197847	-1.238176	44.846000
20.219460	-1.248665	44.892000
20.240378	-1.251674	44.938000
20.261281	-1.244687	44.984000
20.281654	-1.238311	45.029000
20.546597	-1.130798	45.075000
20.567747	-1.148975	45.653000
20.588550	-1.173771	45.700000
20.610310	-1.205127	45.746000
20.631107	-1.238876	45.791000
20.652861	-1.278163	45.836000
20.673946	-1.316278	45.882000
20.694350	-1.346313	45.928000
20.715443	-1.363463	45.974000
20.735729	-1.371219	46.019000
20.756578	-1.364242	46.065000
20.777692	-1.346131	46.111000
20.799208	-1.308587	46.157000
20.870864	-1.099156	46.202000
20.891791	-1.046156	46.359000
20.962416	-0.995212	46.404000
20.982825	-0.906401	46.560000
21.004556	-0.907899	46.606000
21.026354	-0.894466	46.652000
21.046890	-0.868378	46.697000
21.067497	-0.832514	46.743000
21.087986	-0.804640	46.789000
21.109245	-0.791561	46.835000
21.130245	-0.794379	46.881000
21.151223	-0.800210	46.926000
21.173079	-0.803072	46.972000
21.193380	-0.801837	47.017000
21.213261	-0.804388	47.063000
21.234053	-0.819323	47.109000
21.255161	-0.818884	47.154000
21.276542	-0.798425	47.200000
21.297993	-0.780507	47.246000
21.369645	-0.811102	47.292000
21.390334	-0.832311	47.447000
21.460884	-0.843839	47.493000
21.482054	-0.860869	47.649000
21.503158	-0.858561	47.695000
21.524595	-0.855258	47.740000
21.545636	-0.849699	47.786000
21.566308	-0.843384	47.832000
21.587146	-0.845603	47.878000
21.607978	-0.853182	47.923000
21.629013	-0.845681	47.969000
21.650508	-0.816691	48.015000
21.671996	-0.811313	48.061000
21.692680	-0.838889	48.107000
21.713324	-0.862304	48.152000
21.734050	-0.872163	48.198000
21.755366	-0.886917	48.243000
21.776249	-0.918387	48.289000
21.796639	-0.958866	48.335000
21.870846	-1.109499	48.381000
21.892049	-1.156193	48.542000
21.963370	-1.208201	48.588000
21.984041	-1.222364	48.744000
22.005155	-1.209014	48.789000
22.025954	-1.207537	48.835000
22.046957	-1.221129	48.881000
22.068054	-1.260024	48.927000
22.089905	-1.319197	48.972000
22.110457	-1.390094	49.018000
22.131413	-1.459481	49.064000
22.151179	-1.523766	49.110000
22.172712	-1.578825	49.155000
22.193286	-1.619355	49.201000
22.214731	-1.651540	49.247000
22.236308	-1.675023	49.292000
22.256727	-1.688032	49.338000
22.277362	-1.696263	49.384000
22.297971	-1.702955	49.430000
22.375640	-1.701630	49.476000
22.396489	-1.696070	49.642000
22.467574	-1.691030	49.687000
22.488596	-1.688801	49.844000
22.508746	-1.701891	49.889000
22.529969	-1.720399	49.935000
22.551583	-1.739113	49.981000
22.572711	-1.757081	50.026000
22.593742	-1.775328	50.072000
22.613809	-1.788698	50.118000
22.634666	-1.797413	50.164000
22.655634	-1.800956	50.209000
22.676414	-1.796769	50.255000
22.698279	-1.788468	50.301000
22.718364	-1.772479	50.347000
22.738691	-1.750796	50.392000
22.759741	-1.729955	50.438000
22.780125	-1.707923	50.484000
22.801487	-1.687144	50.529000
23.067331	-1.568492	50.575000
23.088057	-1.541790	51.154000
23.109260	-1.526319	51.200000
23.130969	-1.512369	51.246000
23.151828	-1.503196	51.291000
23.172641	-1.499532	51.337000
23.193121	-1.500063	51.382000
23.213384	-1.500366	51.429000
23.234310	-1.508679	51.474000
23.255328	-1.519687	51.519000
23.276694	-1.529625	51.565000
23.298355	-1.538414	51.611000
23.319080	-1.540806	51.657000
23.390173	-1.450995	51.702000
23.411331	-1.397422	51.858000
23.483098	-1.355355	51.904000
23.504399	-1.225968	52.060000
23.525743	-1.155107	52.106000
23.546120	-1.080768	52.152000
23.566679	-1.010440	52.198000
23.588185	-0.947687	52.243000
23.608439	-0.887399	52.289000
23.629724	-0.833707	52.335000
23.651787	-0.801736	52.380000
23.672336	-0.795095	52.426000
23.692597	-0.777338	52.471000
23.713539	-0.746148	52.517000
23.734745	-0.707274	52.563000
23.755200	-0.649460	52.609000
23.776220	-0.578219	52.654000
23.797108	-0.505830	52.700000
23.818018	-0.450412	52.746000
23.889561	-0.430438	52.791000
23.910333	-0.488577	52.948000
23.981267	-0.565414	52.993000
24.003497	-0.737697	53.149000
24.024187	-0.712973	53.195000
24.045197	-0.662477	53.241000
24.065739	-0.612169	53.287000
24.086442	-0.571294	53.332000
24.107640	-0.533276	53.378000
24.128207	-0.493013	53.424000
24.149152	-0.454248	53.470000
24.170597	-0.412752	53.515000
24.191100	-0.388619	53.561000
24.212272	-0.376866	53.607000
24.233150	-0.366938	53.652000
24.254356	-0.359159	53.698000
24.274934	-0.352113	53.744000
24.296484	-0.350555	53.789000
24.317892	-0.350909	53.835000
24.391717	-0.304352	53.881000
24.413284	-0.275906	54.042000
24.483267	-0.237615	54.088000
24.504226	-0.146250	54.244000
24.525282	-0.133385	54.290000
24.546423	-0.118645	54.336000
24.568210	-0.123653	54.381000
24.589201	-0.147568	54.427000
24.609910	-0.173795	54.473000
24.630021	-0.192123	54.519000
24.651477	-0.200204	54.564000
24.671923	-0.206044	54.610000
24.693481	-0.208824	54.656000
24.714372	-0.206327	54.701000
24.735469	-0.179200	54.747000
24.756243	-0.145893	54.793000
24.777313	-0.119837	54.839000
24.797726	-0.107380	54.884000
24.818710	-0.106855	54.930000
24.895998	-0.198401	54.976000
24.916566	-0.225204	55.142000
24.987807	-0.232330	55.188000
25.008324	-0.166909	55.344000
25.029745	-0.141303	55.390000
25.051344	-0.123702	55.435000
25.072569	-0.122658	55.481000
25.093005	-0.125923	55.527000
25.113574	-0.121391	55.573000
25.134486	-0.111659	55.619000
25.155335	-0.096673	55.664000
25.177254	-0.087886	55.710000
25.198098	-0.089011	55.755000
25.218822	-0.101297	55.802000
25.239233	-0.122098	55.847000
25.260316	-0.147487	55.893000
25.281354	-0.172406	55.938000
25.302191	-0.194792	55.984000
25.323553	-0.215451	56.030000
25.588116	-0.192652	56.076000
25.609408	0.026358	56.654000
25.630740	0.039428	56.700000
25.651185	0.040652	56.746000
25.672088	0.039724	56.791000
25.692710	0.046750	56.837000
25.713898	0.059040	56.883000
25.734858	0.065904	56.928000
25.756420	0.066046	56.974000
25.777192	0.076302	57.020000
25.798087	0.096384	57.066000
25.819151	0.122578	57.112000
25.839868	0.144186	57.157000
25.911045	0.257674	57.203000
25.932542	0.312209	57.359000
26.004576	0.357663	57.405000
26.024699	0.456263	57.560000
26.045623	0.485885	57.606000
26.066303	0.506227	57.652000
26.087169	0.505447	57.697000
26.108722	0.494086	57.744000
26.129446	0.482423	57.789000
26.150256	0.465235	57.835000
26.170988	0.444555	57.880000
26.191745	0.420477	57.926000
26.212633	0.383995	57.972000
26.233226	0.329688	58.018000
26.254880	0.257159	58.063000
26.276791	0.173322	58.109000
26.297531	0.093512	58.155000
26.318057	0.033853	58.200000
26.338929	0.002196	58.246000
26.410470	-0.007734	58.292000
26.431213	-0.034865	58.448000
26.503353	-0.071362	58.494000
26.524201	-0.189568	58.650000
26.545073	-0.229483	58.695000
26.565670	-0.278561	58.741000
26.586419	-0.328071	58.787000
26.607386	-0.371298	58.832000
26.629001	-0.401982	58.878000
26.649867	-0.416713	58.923000
26.670423	-0.412753	58.969000
26.691214	-0.396141	59.015000
26.711873	-0.374517	59.060000
26.732851	-0.352765	59.106000
26.753924	-0.325084	59.152000
26.775106	-0.286823	59.198000
26.796798	-0.239014	59.244000
26.817470	-0.173158	59.290000
26.837983	-0.102110	59.335000
26.912494	-0.139941	59.381000
26.933256	-0.194223	59.542000
27.004136	-0.239428	59.588000
27.025512	-0.303713	59.744000
27.046576	-0.291851	59.790000
27.067321	-0.269142	59.836000
27.088353	-0.243148	59.881000
27.108796	-0.216689	59.927000
27.130235	-0.182299	59.973000
27.150856	-0.134581	60.019000
27.172198	-0.079745	60.064000
27.193339	-0.022366	60.110000
27.214888	0.024030	60.155000
27.235391	0.053329	60.201000
27.256386	0.067069	60.247000
27.276916	0.058990	60.293000
27.297356	0.034761	60.339000
27.317896	0.000038	60.384000
27.339323	-0.041539	60.430000
27.415551	-0.132400	60.476000
27.436782	-0.135272	60.643000
27.508446	-0.133757	60.688000
27.529469	-0.124067	60.844000
27.550708	-0.094382	60.890000
27.571346	-0.080240	60.936000
27.591769	-0.074934	60.981000
27.612643	-0.080638	61.027000
27.634151	-0.109651	61.073000
27.655566	-0.158546	61.118000
27.676644	-0.210495	61.164000
27.697551	-0.250356	61.210000
27.718002	-0.278692	61.255000
27.738590	-0.295898	61.301000
27.759823	-0.309555	61.347000
27.780206	-0.318980	61.393000
27.801690	-0.326545	61.438000
27.823022	-0.333520	61.484000
27.843704	-0.337759	61.530000
28.109616	-0.261783	61.575000
28.130819	-0.372461	62.154000
28.150771	-0.400736	62.200000
28.172035	-0.426985	62.246000
28.192826	-0.454490	62.291000
28.213668	-0.482745	62.337000
28.235164	-0.512625	62.383000
28.256714	-0.541508	62.429000
28.277909	-0.570088	62.474000
28.298313	-0.596768	62.520000
28.318747	-0.616539	62.566000
28.339575	-0.628937	62.611000
28.360468	-0.630022	62.657000
28.432698	-0.526553	62.703000
28.453787	-0.475024	62.859000
28.524640	-0.415670	62.905000
28.545862	-0.213842	63.061000
28.566803	-0.160434	63.106000
28.588248	-0.097688	63.152000
28.608982	-0.039019	63.198000
28.629736	0.010174	63.243000
28.650828	0.055295	63.289000
28.671504	0.098108	63.335000
28.692140	0.141995	63.380000
28.712268	0.188327	63.426000
28.733680	0.223364	63.472000
28.755305	0.242021	63.517000
28.776306	0.240945	63.563000
28.796844	0.231893	63.609000
28.817701	0.234428	63.654000
28.837920	0.251095	63.700000
28.858976	0.276289	63.746000
28.931641	0.332383	63.791000
28.952004	0.349976	63.947000
29.023087	0.382169	63.993000
29.044614	0.536868	64.149000
29.064319	0.558758	64.194000
29.086074	0.569364	64.240000
29.107234	0.569142	64.286000
29.128351	0.561036	64.332000
29.149057	0.545179	64.377000
29.169995	0.522981	64.423000
29.190531	0.503500	64.469000
29.211155	0.498077	64.514000
29.232897	0.499866	64.560000
29.253892	0.496505	64.606000
29.275043	0.474050	64.652000
29.295982	0.437912	64.697000
29.316315	0.397397	64.743000
29.337490	0.363227	64.789000
29.357876	0.335123	64.835000
29.432809	0.286581	64.880000
29.453754	0.306307	65.043000
29.525960	0.354459	65.088000
29.547149	0.536919	65.244000
29.568113	0.554842	65.290000
29.588442	0.572559	65.336000
29.609141	0.593412	65.382000
29.630209	0.617236	65.427000
29.651344	0.648078	65.473000
29.672078	0.681696	65.519000
29.693330	0.719412	65.564000
29.714183	0.760070	65.610000
29.734957	0.795209	65.656000
29.755881	0.821217	65.701000
29.776006	0.836565	65.747000
29.797253	0.847690	65.793000
29.818747	0.856550	65.838000
29.839468	0.869092	65.884000
29.860864	0.884680	65.930000
29.936681	0.945020	65.975000
29.958878	0.974359	66.143000
30.029462	1.008808	66.188000
30.050283	1.054877	66.344000
30.070769	1.042315	66.390000
30.091869	1.006890	66.436000
30.112325	0.944147	66.481000
30.134140	0.875094	66.527000
30.155617	0.809232	66.573000
30.176074	0.741364	66.619000
30.197081	0.669096	66.664000
30.217377	0.606066	66.710000
30.238500	0.551672	66.756000
30.259666	0.492206	66.802000
30.281230	0.434539	66.847000
30.302507	0.392346	66.893000
30.323168	0.374832	66.939000
30.343720	0.364202	66.984000
30.364548	0.335639	67.030000
30.629423	0.074932	67.076000
30.650785	-0.067729	67.655000
30.671728	-0.079575	67.700000
30.692752	-0.091178	67.746000
30.712864	-0.089668	67.791000
30.734387	-0.072220	67.837000
30.755532	-0.052170	67.883000
30.776387	-0.035385	67.929000
30.796786	-0.027678	67.974000
30.817881	-0.033431	68.020000
30.838492	-0.058213	68.065000
30.859896	-0.101601	68.111000
30.881416	-0.156457	68.157000
30.952543	-0.333041	68.203000
30.973450	-0.383449	68.358000
31.044647	-0.437130	68.404000
31.065348	-0.617402	68.560000
31.086862	-0.657486	68.606000
31.107678	-0.687038	68.651000
31.127795	-0.710499	68.697000
31.148873	-0.732052	68.743000
31.169361	-0.753477	68.788000
31.190454	-0.776022	68.834000
31.211894	-0.795976	68.880000
31.232822	-0.812437	68.925000
31.254374	-0.827452	68.971000
31.275047	-0.842769	69.016000
31.295156	-0.848040	69.062000
31.316693	-0.837522	69.108000
31.337286	-0.802981	69.153000
31.358554	-0.732142	69.199000
31.379678	-0.634232	69.244000
31.450512	-0.416502	69.291000
31.470690	-0.347754	69.446000
31.542235	-0.291154	69.492000
31.563685	-0.193465	69.648000
31.585178	-0.188524	69.693000
31.605854	-0.199179	69.739000
31.626893	-0.222084	69.785000
31.647567	-0.227213	69.831000
31.668347	-0.221009	69.876000
31.689669	-0.233946	69.922000
31.710610	-0.253874	69.968000
31.732449	-0.265922	70.013000
31.752637	-0.283205	70.059000
31.772867	-0.318426	70.105000
31.793371	-0.365072	70.150000
31.814558	-0.404199	70.196000
31.835476	-0.433598	70.242000
31.857203	-0.451415	70.287000
31.878567	-0.463320	70.333000
31.953148	-0.498964	70.379000
31.974913	-0.485996	70.543000
32.046420	-0.467624	70.588000
32.066927	-0.433477	70.744000
32.088129	-0.438284	70.790000
32.108798	-0.447620	70.837000
32.129603	-0.456243	70.882000
32.150988	-0.461722	70.928000
32.172530	-0.465678	70.974000
32.192976	-0.446304	71.019000
32.213879	-0.383378	71.065000
32.234284	-0.296434	71.110000
32.255283	-0.225390	71.156000
32.276385	-0.166668	71.202000
32.297715	-0.079967	71.248000
32.319321	0.008501	71.294000
32.340147	0.096222	71.340000
32.360331	0.140658	71.385000
32.381172	0.134257	71.431000
32.458226	0.091183	71.476000
32.478833	0.033303	71.643000
32.550354	-0.061846	71.689000
32.570666	-0.273492	71.844000
32.590869	-0.309882	71.890000
32.612732	-0.353727	71.936000
32.634219	-0.398560	71.982000
32.654219	-0.449227	72.027000
32.675779	-0.494539	72.073000
32.695426	-0.514838	72.119000
32.716513	-0.498915	72.164000
32.737377	-0.476158	72.210000
32.758564	-0.456903	72.256000
32.780036	-0.442515	72.301000
32.800969	-0.419021	72.347000
32.822214	-0.373707	72.392000
32.843040	-0.317502	72.438000
32.864081	-0.256846	72.484000
32.885245	-0.207583	72.529000
33.150909	0.091974	72.575000
33.171097	0.205889	73.155000
33.192234	0.203739	73.201000
33.213621	0.177481	73.246000
33.234666	0.143071	73.292000
33.255903	0.096813	73.338000
33.276007	0.042850	73.384000
33.296817	-0.011605	73.430000
33.318001	-0.051298	73.475000
33.339411	-0.071150	73.521000
33.360598	-0.064084	73.567000
33.381942	-0.041871	73.613000
33.402719	-0.017557	73.658000
33.473038	-0.054180	73.704000
33.494482	-0.057068	73.860000
33.566299	-0.033600	73.905000
33.587206	0.144347	74.061000
33.608485	0.196520	74.107000
33.629016	0.242041	74.153000
33.649657	0.285026	74.199000
33.670137	0.327315	74.244000
33.691474	0.376755	74.290000
33.713176	0.414706	74.336000
33.734167	0.436424	74.381000
33.754786	0.462816	74.427000
33.775374	0.497811	74.473000
33.796000	0.523012	74.519000
33.817349	0.530018	74.565000
33.838497	0.533915	74.610000
33.859573	0.545982	74.656000
33.881867	0.570227	74.702000
33.902451	0.580727	74.748000
33.973945	0.575547	74.793000
33.994133	0.547125	74.950000
34.065336	0.538062	74.995000
34.087049	0.480002	75.151000
34.107142	0.434015	75.197000
34.127841	0.398822	75.243000
34.148386	0.393965	75.288000
34.169447	0.417472	75.334000
34.190465	0.448031	75.380000
34.211671	0.458328	75.425000
34.232920	0.449391	75.471000
34.253969	0.432982	75.517000
34.274783	0.414463	75.563000
34.295256	0.404937	75.608000
34.316646	0.410103	75.654000
34.337253	0.423678	75.700000
34.358529	0.443703	75.746000
34.379866	0.471721	75.791000
34.400796	0.497709	75.837000
34.474165	0.625530	75.882000
34.494876	0.664614	76.043000
34.565882	0.676739	76.089000
34.586693	0.630214	76.244000
34.607961	0.627275	76.290000
34.629551	0.639501	76.336000
34.650996	0.679384	76.382000
34.671676	0.719810	76.428000
34.692421	0.760272	76.473000
34.713094	0.797427	76.519000
34.734154	0.812195	76.565000
34.755107	0.806681	76.610000
34.776132	0.791182	76.656000
34.797612	0.779527	76.702000
34.818407	0.784871	76.747000
34.839264	0.810507	76.793000
34.859982	0.850311	76.839000
34.880966	0.895110	76.885000
34.902080	0.944403	76.931000
34.978146	1.060158	76.976000
34.998807	1.052393	77.143000
35.070217	1.026081	77.189000
35.091807	0.829911	77.345000
35.113452	0.751307	77.390000
35.133578	0.670181	77.436000
35.154404	0.593806	77.481000
35.174608	0.520245	77.527000
35.195699	0.454322	77.573000
35.216740	0.399705	77.619000
35.238158	0.352021	77.664000
35.259503	0.304464	77.710000
35.280790	0.254573	77.756000
35.301012	0.205798	77.801000
35.321996	0.163024	77.847000
35.342703	0.125774	77.893000
35.363775	0.096313	77.939000
35.385361	0.073697	77.984000
35.405692	0.055758	78.030000
35.671493	0.133268	78.076000
35.693011	0.302476	78.655000
35.713998	0.305202	78.701000
35.734567	0.306065	78.746000
35.754886	0.311571	78.792000
35.775612	0.320047	78.838000
35.796814	0.324131	78.884000
35.818263	0.322712	78.929000
35.839903	0.313833	78.975000
35.860783	0.299871	79.021000
35.880875	0.287278	79.067000
35.901997	0.278590	79.112000
35.922742	0.277212	79.158000
35.994225	0.380501	79.204000
36.016008	0.431747	79.359000
36.087372	0.462795	79.405000
36.107018	0.453884	79.561000
36.127334	0.463350	79.607000
36.148582	0.504807	79.652000
36.169500	0.566089	79.698000
36.191233	0.613405	79.744000
36.212397	0.636529	79.790000
36.233507	0.648472	79.835000
36.254007	0.658501	79.881000
36.274645	0.666295	79.926000
36.295713	0.665537	79.972000
36.316904	0.656077	80.018000
36.338314	0.636034	80.064000
36.359201	0.621274	80.109000
36.379731	0.609786	80.155000
36.400427	0.608671	80.201000
36.421856	0.615979	80.247000
36.492666	0.713460	80.292000
36.514069	0.722687	80.448000
36.586020	0.712274	80.494000
36.606996	0.625419	80.649000
36.627811	0.588596	80.695000
36.648717	0.545517	80.741000
36.669666	0.501081	80.786000
36.690277	0.457805	80.832000
36.711318	0.421319	80.878000
36.732244	0.392160	80.924000
36.753262	0.372310	80.970000
36.774361	0.364252	81.016000
36.795007	0.367985	81.061000
36.815541	0.370263	81.107000
36.837581	0.374336	81.153000
36.858437	0.374821	81.198000
36.879202	0.369069	81.244000
36.900339	0.366024	81.290000
36.920743	0.388863	81.336000
36.995476	0.522749	81.382000
37.016413	0.516878	81.543000
37.086867	0.491535	81.589000
37.108530	0.339399	81.745000
37.130063	0.267304	81.791000
37.150562	0.202926	81.836000
37.170728	0.152257	81.882000
37.191404	0.120452	81.928000
37.212253	0.110885	81.974000
37.233574	0.112453	82.019000
37.254973	0.121293	82.065000
37.276083	0.133399	82.111000
37.296932	0.145746	82.157000
37.317808	0.154518	82.202000
37.338465	0.152520	82.248000
37.359518	0.148627	82.293000
37.380409	0.152924	82.339000
37.401327	0.175441	82.385000
37.423022	0.215822	82.431000
37.498792	0.390733	82.476000
37.519245	0.416832	82.643000
37.591381	0.456529	82.689000
37.612277	0.610433	82.845000
37.632945	0.647370	82.890000
37.653644	0.682650	82.936000
37.674409	0.714121	82.982000
37.695504	0.733363	83.028000
37.716987	0.735230	83.073000
37.738070	0.713869	83.119000
37.758520	0.686738	83.164000
37.779338	0.684436	83.210000
37.799926	0.706212	83.256000
37.820890	0.738128	83.302000
37.841789	0.764447	83.347000
37.862669	0.784881	83.393000
37.884225	0.793092	83.439000
37.904609	0.783182	83.484000
37.925570	0.753973	83.530000
38.191628	0.530089	83.575000
38.212374	0.599060	84.155000
38.233557	0.616283	84.201000
38.254556	0.621007	84.247000
38.275190	0.614682	84.292000
38.296419	0.603103	84.338000
38.317672	0.591588	84.384000
38.338356	0.588444	84.430000
38.359116	0.598696	84.475000
38.379815	0.617105	84.521000
38.400722	0.635720	84.567000
38.421656	0.654352	84.612000
38.442866	0.676405	84.658000
38.514868	0.786350	84.704000
38.535571	0.770478	84.859000
38.607234	0.735493	84.905000
38.627668	0.732887	85.061000
38.649028	0.764894	85.107000
38.670327	0.778736	85.153000
38.691914	0.765804	85.199000
38.712536	0.739334	85.245000
38.733139	0.713036	85.290000
38.753865	0.705439	85.336000
38.775333	0.699579	85.382000
38.795483	0.680968	85.427000
38.816927	0.649752	85.473000
38.838464	0.613354	85.519000
38.858833	0.574564	85.565000
38.879467	0.535889	85.610000
38.900654	0.507043	85.655000
38.920750	0.486131	85.701000
38.941822	0.473415	85.747000
39.013881	0.438355	85.793000
39.034596	0.443915	85.948000
39.105787	0.465935	85.994000
39.126728	0.603012	86.149000
39.146966	0.635221	86.195000
39.168065	0.680705	86.241000
39.189245	0.724968	86.286000
39.210409	0.758872	86.331000
39.230605	0.786857	86.377000
39.251849	0.822835	86.423000
39.272422	0.846283	86.469000
39.293686	0.836524	86.514000
39.315311	0.804835	86.560000
39.336306	0.762856	86.606000
39.357370	0.717548	86.652000
39.378004	0.665789	86.697000
39.398838	0.605782	86.743000
39.419502	0.554332	86.789000
39.440736	0.526967	86.835000
39.515123	0.489796	86.880000
39.536387	0.491787	87.044000
39.608573	0.509544	87.090000
39.628896	0.530210	87.245000
39.650002	0.511802	87.291000
39.670755	0.518828	87.337000
39.691166	0.557766	87.382000
39.712330	0.612724	87.428000
39.733594	0.678424	87.474000
39.754367	0.744982	87.519000
39.775584	0.784141	87.565000
39.796303	0.791212	87.611000
39.816875	0.780284	87.657000
39.838016	0.752473	87.702000
39.858420	0.704183	87.748000
39.880164	0.648168	87.794000
39.901236	0.606591	87.839000
39.922112	0.581388	87.885000
39.943272	0.564030	87.931000
40.019734	0.547167	87.976000
40.121801	0.664270	88.144000
40.143637	0.684628	88.367000
40.164440	0.716106	88.413000
40.185143	0.753144	88.458000
40.205539	0.798994	88.504000
40.226069	0.850129	88.550000
40.247064	0.895451	88.596000
40.268286	0.927311	88.641000
40.290169	0.953159	88.687000
40.310545	0.969671	88.733000
40.331267	0.975311	88.778000
40.351782	0.971818	88.824000
40.372796	0.961652	88.870000
40.393818	0.953632	88.915000
40.415497	0.946677	88.961000
40.436738	0.937245	89.007000
40.457764	0.947328	89.052000
40.712348	1.012688	89.098000
40.733442	0.947740	89.655000
40.754092	0.935179	89.701000
40.775321	0.942468	89.747000
40.796374	0.959141	89.792000
40.817238	0.978954	89.838000
40.837868	0.996712	89.884000
40.858952	1.003421	89.929000
40.879624	1.006010	89.975000
40.900973	1.008493	90.020000
40.921818	0.997645	90.066000
40.943370	0.977578	90.112000
40.964138	0.957906	90.158000
41.034234	1.007378	90.203000
41.054949	1.040314	90.359000
41.126532	1.047088	90.405000
41.147531	0.889014	90.560000
41.168603	0.824801	90.606000
41.189598	0.758933	90.652000
41.209993	0.707892	90.698000
41.231215	0.678949	90.744000
41.252617	0.673038	90.789000
41.273701	0.689716	90.835000
41.295284	0.712041	90.881000
41.316298	0.727179	90.926000
41.336897	0.735249	90.972000
41.357804	0.741605	91.018000
41.377923	0.765834	91.063000
41.398868	0.807669	91.109000
41.420055	0.848954	91.155000
41.441208	0.885693	91.201000
41.462837	0.918188	91.247000
41.533502	0.917149	91.292000
41.553966	0.893264	91.448000
41.625545	0.893823	91.494000
41.647086	0.925824	91.649000
41.668542	0.895757	91.695000
41.689483	0.843682	91.741000
41.710136	0.774016	91.787000
41.730536	0.703107	91.833000
41.751231	0.646972	91.879000
41.772561	0.612805	91.925000
41.793725	0.600750	91.971000
41.814935	0.606969	92.016000
41.836091	0.611567	92.062000
41.857298	0.621536	92.108000
41.877482	0.658419	92.153000
41.898412	0.713460	92.199000
41.919484	0.771017	92.244000
41.940875	0.822614	92.290000
41.962196	0.869953	92.336000
42.035612	1.005753	92.382000
42.057617	1.018437	92.544000
42.128266	1.028180	92.590000
42.149242	1.045154	92.746000
42.169880	1.051257	92.792000
42.191063	1.077076	92.838000
42.212688	1.121667	92.884000
42.234413	1.166449	92.930000
42.255485	1.178075	92.976000
42.276230	1.168364	93.021000
42.297091	1.150025	93.067000
42.317560	1.134236	93.113000
42.338685	1.126240	93.158000
42.359865	1.119861	93.204000
42.380833	1.100335	93.250000
42.402773	1.061231	93.296000
42.423353	1.011209	93.342000
42.443342	0.977443	93.387000
42.464045	0.985250	93.433000
42.540507	1.132464	93.479000
42.561452	1.163174	93.644000
42.632731	1.189665	93.690000
42.653822	1.249337	93.846000
42.674837	1.273717	93.892000
42.696516	1.297050	93.938000
42.718329	1.321832	93.984000
42.739032	1.347698	94.030000
42.759489	1.378576	94.076000
42.780138	1.392599	94.121000
42.800838	1.384368	94.167000
42.821994	1.372835	94.213000
42.843231	1.357673	94.259000
42.864879	1.335985	94.305000
42.886201	1.318410	94.351000
42.906051	1.312562	94.396000
42.926812	1.318410	94.442000
42.947822	1.318504	94.488000
42.968406	1.313409	94.534000
43.232924	1.337119	94.580000
43.253493	1.372997	95.155000
43.274941	1.409675	95.201000
43.296647	1.457456	95.247000
43.317139	1.513480	95.293000
43.338026	1.565683	95.339000
43.358637	1.599543	95.385000
43.379713	1.613212	95.430000
43.400462	1.615372	95.476000
43.421984	1.628329	95.522000
43.443447	1.662254	95.568000
43.464116	1.692598	95.613000
43.484853	1.706262	95.659000
43.556064	1.697629	95.704000
43.577116	1.656810	95.861000
43.649391	1.603490	95.906000
43.670125	1.488680	96.062000
43.690559	1.485112	96.108000
43.711496	1.493375	96.154000
43.731316	1.499781	96.199000
43.752422	1.495374	96.245000
43.774182	1.478909	96.291000
43.795542	1.466284	96.337000
43.816921	1.461978	96.383000
43.837228	1.458905	96.429000
43.858089	1.456714	96.474000
43.878681	1.454433	96.520000
43.899449	1.449061	96.566000
43.921036	1.441365	96.611000
43.942787	1.438921	96.657000
43.963491	1.444195	96.703000
43.984151	1.449334	96.749000
44.055419	1.471090	96.795000
44.076614	1.480458	96.951000
44.148516	1.483785	96.997000
44.170095	1.475764	97.152000
44.190345	1.441223	97.198000
44.210871	1.412956	97.244000
44.231697	1.389378	97.290000
44.252776	1.365466	97.336000
44.273837	1.341182	97.381000
44.295197	1.316851	97.427000
44.316557	1.294661	97.473000
44.337498	1.279397	97.519000
44.358067	1.273556	97.565000
44.378981	1.277623	97.610000
44.400034	1.286858	97.656000
44.420721	1.298022	97.702000
44.441651	1.313450	97.748000
44.463173	1.338394	97.793000
44.484271	1.372552	97.839000
44.557529	1.465628	97.885000
44.578117	1.484526	98.044000
44.649201	1.492880	98.090000
44.669677	1.432688	98.246000
44.691091	1.398017	98.291000
44.712908	1.379821	98.337000
44.733799	1.389056	98.383000
44.754395	1.421098	98.429000
44.775244	1.452303	98.475000
44.795570	1.471251	98.520000
44.816957	1.480438	98.566000
44.837756	1.484462	98.612000
44.859535	1.486783	98.657000
44.880665	1.502214	98.703000
44.900480	1.511138	98.749000
44.920692	1.510184	98.795000
44.941925	1.499609	98.841000
44.962590	1.481998	98.886000
44.983973	1.463629	98.932000
45.060381	1.474032	98.978000
45.081430	1.488368	99.144000
45.152033	1.502602	99.190000
45.173716	1.581094	99.346000
45.194584	1.617215	99.391000
45.215606	1.652123	99.437000
45.236701	1.673359	99.483000
45.257361	1.681086	99.529000
45.278088	1.679487	99.575000
45.298964	1.670586	99.620000
45.320785	1.665345	99.666000
45.342417	1.667366	99.712000
45.363301	1.661141	99.758000
45.383385	1.639537	99.804000
45.404365	1.608103	99.850000
45.425487	1.577990	99.895000
45.445871	1.555088	99.941000
45.467746	1.538946	99.987000
45.488649	1.524893	100.032000
45.752987	1.703480	100.078000
45.774220	1.637451	100.656000
45.795138	1.598947	100.702000
45.816164	1.561120	100.747000
45.836913	1.522390	100.793000
45.857147	1.483805	100.839000
45.878457	1.450238	100.885000
45.900298	1.424298	100.930000
45.921469	1.406933	100.976000
45.942169	1.400649	101.022000
45.962695	1.404826	101.068000
45.983732	1.415375	101.113000
46.004566	1.427650	101.159000
46.076587	1.402805	101.205000
46.098227	1.363046	101.361000
46.168796	1.321116	101.407000
46.189626	1.258208	101.562000
46.210736	1.288233	101.608000
46.231843	1.334155	101.654000
46.252961	1.382099	101.700000
46.274167	1.422799	101.745000
46.295281	1.446588	101.792000
46.315519	1.458389	101.837000
46.336653	1.463761	101.883000
46.357052	1.467950	101.929000
46.378024	1.477152	101.975000
46.399265	1.504051	102.020000
46.420763	1.546653	102.066000
46.441152	1.575829	102.112000
46.462266	1.589871	102.157000
46.483049	1.586812	102.203000
46.503906	1.588372	102.249000
46.575927	1.737432	102.294000
46.597195	1.794296	102.451000
46.667671	1.818148	102.497000
46.688766	1.797366	102.652000
46.709608	1.785137	102.698000
46.730576	1.779265	102.744000
46.751356	1.772502	102.790000
46.772762	1.760929	102.836000
46.793822	1.755097	102.881000
46.815063	1.750582	102.927000
46.835824	1.762093	102.973000
46.856442	1.797013	103.019000
46.877587	1.819761	103.064000
46.898594	1.811600	103.110000
46.919581	1.790280	103.156000
46.941252	1.772583	103.202000
46.962397	1.760637	103.247000
46.983600	1.756932	103.293000
47.004126	1.754715	103.339000
47.076742	1.740410	103.385000
47.097841	1.743182	103.544000
47.168867	1.762713	103.590000
47.189797	1.876783	103.746000
47.211287	1.921329	103.792000
47.232590	1.949757	103.837000
47.252728	1.954663	103.883000
47.273934	1.953002	103.929000
47.294995	1.953956	103.975000
47.315775	1.950641	104.020000
47.337392	1.939843	104.066000
47.358341	1.920904	104.112000
47.379044	1.894404	104.158000
47.399474	1.858546	104.203000
47.420738	1.818839	104.249000
47.441438	1.779921	104.295000
47.462506	1.739447	104.341000
47.483766	1.703297	104.386000
47.505141	1.676659	104.432000
47.580908	1.602131	104.478000
47.601488	1.579725	104.644000
47.673570	1.577595	104.690000
47.694427	1.793193	104.846000
47.714481	1.879297	104.892000
47.735453	1.943221	104.937000
47.756494	1.977701	104.983000
47.777408	1.986349	105.029000
47.799095	1.975703	105.074000
47.820217	1.953427	105.120000
47.841869	1.933272	105.166000
47.862587	1.918644	105.212000
47.882990	1.906327	105.258000
47.904093	1.892658	105.303000
47.925019	1.875264	105.349000
47.946490	1.855012	105.394000
47.967485	1.839066	105.440000
47.988431	1.834267	105.486000
48.009072	1.833283	105.532000
48.274439	1.702417	105.578000
48.295454	1.502285	106.156000
48.315680	1.474265	106.202000
48.336752	1.464502	106.248000
48.357809	1.478430	106.293000
48.379419	1.516560	106.339000
48.400771	1.568773	106.385000
48.420544	1.627608	106.431000
48.441374	1.678067	106.476000
48.462304	1.709896	106.522000
48.483141	1.723279	106.568000
48.504313	1.727684	106.614000
48.525865	1.722250	106.659000
48.597510	1.681509	106.705000
48.617921	1.700289	106.861000
48.689492	1.726988	106.907000
48.710287	1.740803	107.064000
48.731294	1.718707	107.109000
48.753115	1.690714	107.155000
48.774583	1.662325	107.201000
48.795289	1.643594	107.247000
48.815758	1.645520	107.293000
48.836538	1.666172	107.338000
48.857545	1.682059	107.384000
48.878701	1.682109	107.430000
48.899658	1.662457	107.475000
48.921824	1.628470	107.521000
48.942212	1.592935	107.567000
48.962800	1.567435	107.613000
48.983776	1.565279	107.659000
49.003922	1.579564	107.704000
49.024737	1.598715	107.750000
49.097257	1.609013	107.796000
49.117503	1.623226	107.951000
49.188022	1.648839	107.997000
49.209017	1.669493	108.152000
49.229969	1.645217	108.198000
49.251694	1.621222	108.244000
49.273300	1.601451	108.290000
49.293942	1.587867	108.336000
49.314541	1.581235	108.381000
49.335805	1.585127	108.427000
49.356558	1.593532	108.473000
49.377023	1.592915	108.519000
49.398710	1.575254	108.565000
49.419735	1.544039	108.611000
49.441311	1.502113	108.657000
49.461925	1.451107	108.702000
49.482048	1.394382	108.748000
49.502924	1.335995	108.793000
49.524050	1.282321	108.839000
49.597077	1.217449	108.885000
49.618353	1.224392	109.045000
49.690961	1.240632	109.091000
49.711749	1.335270	109.247000
49.732448	1.383526	109.293000
49.753320	1.441183	109.339000
49.774039	1.495788	109.384000
49.795414	1.521072	109.430000
49.816928	1.519481	109.476000
49.837927	1.500493	109.522000
49.858906	1.474669	109.567000
49.879264	1.436418	109.613000
49.900024	1.392256	109.658000
49.920904	1.344276	109.704000
49.941769	1.298875	109.750000
49.962841	1.262845	109.796000
49.984458	1.231665	109.842000
50.005691	1.201415	109.887000
50.025910	1.170412	109.933000
50.102610	1.070306	109.979000
50.123916	1.046502	110.144000
50.193663	1.028840	110.191000
50.214289	1.006727	110.346000
50.235442	1.005581	110.392000
50.256398	1.012416	110.437000
50.278039	1.038764	110.483000
50.298953	1.084204	110.529000
50.319772	1.133438	110.575000
50.340552	1.175970	110.620000
50.361120	1.216161	110.666000
50.382204	1.260148	110.712000
50.403368	1.314836	110.758000
50.424962	1.374020	110.804000
50.446376	1.440067	110.850000
50.466710	1.516105	110.895000
50.487874	1.598478	110.941000
50.508370	1.681948	110.987000
50.528977	1.771530	111.032000
50.794206	2.181459	111.078000
50.815043	2.334717	111.656000
50.836134	2.370610	111.702000
50.857859	2.394344	111.748000
50.879354	2.394273	111.794000
50.899892	2.375850	111.839000
50.920234	2.346397	111.885000
50.941409	2.311977	111.931000
50.962128	2.283064	111.977000
50.983134	2.264302	112.022000
51.003772	2.257856	112.068000
51.025578	2.258838	112.114000
51.046546	2.246052	112.160000
51.117053	2.076801	112.206000
51.137752	2.001850	112.361000
51.209646	1.921748	112.407000
51.231033	1.651836	112.563000
51.251809	1.584632	112.608000
51.273269	1.521379	112.654000
51.293707	1.463498	112.700000
51.314821	1.408970	112.746000
51.335759	1.357825	112.792000
51.356554	1.314775	112.837000
51.377853	1.283545	112.884000
51.398748	1.262447	112.929000
51.420066	1.255525	112.975000
51.440830	1.260688	113.021000
51.461272	1.270677	113.067000
51.482455	1.274291	113.112000
51.503585	1.264805	113.158000
51.524457	1.240562	113.204000
51.546428	1.211059	113.250000
51.617811	1.248853	113.295000
51.638583	1.301595	113.452000
51.709171	1.350516	113.497000
51.730708	1.390461	113.654000
51.752137	1.360153	113.700000
51.773385	1.326917	113.745000
51.794542	1.292251	113.791000
51.815299	1.261741	113.837000
51.835399	1.236432	113.883000
51.856943	1.231539	113.929000
51.878088	1.264795	113.975000
51.898998	1.318939	114.020000
51.920850	1.370104	114.066000
51.941281	1.408028	114.112000
51.962279	1.422201	114.158000
51.982775	1.459667	114.204000
52.003709	1.502399	114.250000
52.024488	1.491447	114.296000
52.045722	1.457940	114.341000
52.118619	1.338701	114.387000
52.140178	1.324373	114.545000
52.210993	1.322774	114.591000
52.231777	1.310649	114.747000
52.252983	1.268057	114.793000
52.273578	1.223788	114.839000
52.294908	1.181553	114.885000
52.316314	1.139572	114.931000
52.337489	1.101976	114.976000
52.358196	1.068399	115.022000
52.379057	1.038936	115.068000
52.399649	1.017393	115.114000
52.420171	1.000524	115.159000
52.441946	0.983611	115.205000
52.463283	0.968919	115.251000
52.484401	0.956021	115.296000
52.505073	0.944382	115.342000
52.525096	0.931413	115.388000
52.545757	0.920527	115.434000
52.622745	0.914574	115.480000
52.643310	0.927981	115.645000
52.714036	0.938904	115.691000
52.735320	1.003890	115.846000
52.756418	1.039243	115.892000
52.777352	1.079196	115.938000
52.798447	1.119244	115.983000
52.819473	1.157465	116.030000
52.839711	1.195797	116.075000
52.860729	1.230102	116.121000
52.881866	1.259685	116.166000
52.903192	1.285713	116.212000
52.924897	1.312572	116.258000
52.945604	1.338263	116.304000
52.966234	1.366551	116.350000
52.987295	1.393073	116.395000
53.007241	1.415885	116.441000
53.028520	1.434227	116.487000
53.049573	1.453998	116.532000
53.314337	1.705421	116.578000
53.335824	1.632069	117.156000
53.357034	1.612389	117.202000
53.378379	1.596918	117.248000
53.398736	1.583284	117.294000
53.419620	1.566360	117.340000
53.440822	1.546215	117.386000
53.461495	1.527674	117.431000
53.483043	1.519168	117.477000
53.504545	1.522605	117.523000
53.525502	1.536635	117.569000
53.546792	1.547557	117.615000
53.566996	1.560756	117.661000
53.638706	1.673299	117.707000
53.659632	1.730996	117.863000
53.730711	1.797931	117.909000
53.751314	1.970004	118.064000
53.772325	2.005540	118.110000
53.792832	2.037739	118.156000
53.814545	2.062123	118.201000
53.835026	2.077518	118.247000
53.857008	2.086937	118.293000
53.878057	2.092008	118.339000
53.899229	2.091564	118.385000
53.919951	2.084386	118.430000
53.940043	2.065824	118.476000
53.961603	2.038056	118.522000
53.982191	1.999185	118.568000
54.003382	1.955143	118.614000
54.025341	1.908599	118.659000
54.045806	1.863281	118.705000
54.066478	1.824590	118.751000
54.138115	1.743933	118.797000
54.159045	1.730885	118.953000
54.230778	1.735754	118.999000
54.252157	1.826510	119.155000
54.273136	1.859556	119.201000
54.293939	1.897019	119.247000
54.314504	1.944740	119.293000
54.335023	2.003575	119.338000
54.356002	2.065490	119.384000
54.377182	2.120375	119.430000
54.398496	2.166418	119.476000
54.419276	2.206020	119.521000
54.440290	2.231046	119.567000
54.461231	2.239710	119.613000
54.481854	2.234367	119.659000
54.503221	2.215707	119.704000
54.524339	2.186368	119.750000
54.546218	2.144720	119.796000
54.567032	2.099835	119.841000
54.639061	2.024094	119.887000
54.659875	2.022005	120.045000
54.731428	2.022595	120.091000
54.751566	2.027905	120.247000
54.773210	2.035204	120.293000
54.794071	2.043629	120.339000
54.815373	2.051022	120.385000
54.836253	2.063501	120.431000
54.856791	2.081510	120.476000
54.878059	2.103141	120.522000
54.899012	2.121428	120.568000
54.920164	2.124391	120.613000
54.941958	2.118847	120.659000
54.963264	2.112577	120.705000
54.983649	2.109826	120.751000
55.004206	2.122663	120.797000
55.025401	2.161454	120.842000
55.046058	2.212804	120.888000
55.067091	2.259221	120.934000
55.142277	2.327856	120.980000
55.162927	2.322400	121.145000
55.234978	2.302916	121.191000
55.256588	2.300544	121.347000
55.277395	2.349734	121.393000
55.298647	2.402361	121.439000
55.319546	2.442908	121.485000
55.340826	2.460030	121.531000
55.361702	2.462716	121.577000
55.382393	2.468536	121.622000
55.403907	2.456491	121.668000
55.425305	2.425246	121.713000
55.445935	2.377949	121.759000
55.465651	2.317837	121.805000
55.486500	2.248764	121.851000
55.507365	2.178859	121.896000
55.528932	2.119462	121.942000
55.550173	2.078036	121.988000
55.571660	2.068020	122.034000
55.836109	2.382744	122.079000
55.857365	2.480123	122.657000
55.877761	2.456976	122.702000
55.898760	2.424362	122.748000
55.919682	2.382643	122.794000
55.940108	2.345983	122.840000
55.961687	2.331586	122.886000
55.983335	2.337608	122.932000
56.003670	2.357753	122.977000
56.024803	2.376112	123.023000
56.044949	2.384668	123.069000
56.066528	2.394424	123.115000
56.087043	2.407382	123.160000
56.158272	2.469256	123.206000
56.179598	2.499831	123.362000
56.251396	2.534029	123.408000
56.272652	2.661661	123.564000
56.293190	2.707845	123.610000
56.314696	2.751147	123.656000
56.335518	2.783497	123.701000
56.357477	2.813061	123.747000
56.377896	2.840915	123.793000
56.398004	2.878640	123.838000
56.418438	2.913424	123.884000
56.439598	2.943069	123.930000
56.460574	2.987028	123.976000
56.481930	3.027014	124.021000
56.503701	3.055758	124.067000
56.524047	3.070336	124.113000
56.544981	3.071682	124.159000
56.566191	3.066202	124.204000
56.586510	3.045159	124.250000
56.658204	2.935746	124.296000
56.680010	2.887924	124.452000
56.751351	2.830187	124.498000
56.772357	2.702135	124.654000
56.792722	2.669514	124.700000
56.813560	2.628566	124.746000
56.834635	2.583098	124.791000
56.855753	2.535713	124.837000
56.877325	2.493647	124.883000
56.898781	2.460619	124.928000
56.919246	2.433141	124.974000
56.939764	2.409033	125.020000
56.960967	2.387297	125.066000
56.981090	2.366249	125.112000
57.002327	2.348274	125.157000
57.023817	2.335105	125.203000
57.044736	2.328190	125.248000
57.064651	2.334202	125.294000
57.086011	2.354357	125.340000
57.158508	2.518621	125.386000
57.179315	2.572255	125.546000
57.251920	2.636807	125.591000
57.273284	2.767208	125.748000
57.294582	2.803592	125.793000
57.314513	2.850097	125.839000
57.335674	2.891331	125.885000
57.356211	2.923499	125.930000
57.376880	2.938156	125.976000
57.398640	2.947553	126.022000
57.420134	2.978299	126.068000
57.440714	3.025911	126.113000
57.461544	3.075954	126.159000
57.482435	3.119902	126.205000
57.502643	3.147256	126.251000
57.523945	3.149126	126.297000
57.545009	3.130234	126.343000
57.566734	3.098591	126.389000
57.587464	3.032241	126.434000
57.663400	2.715516	126.480000
57.684330	2.693682	126.646000
57.756666	2.672855	126.691000
57.777134	2.507057	126.848000
57.798068	2.448451	126.894000
57.818859	2.395580	126.939000
57.840039	2.372433	126.985000
57.860811	2.402351	127.031000
57.882294	2.461867	127.076000
57.903258	2.481573	127.123000
57.923662	2.477288	127.168000
57.944388	2.491521	127.214000
57.965191	2.523176	127.260000
57.985882	2.531680	127.306000
58.007112	2.525657	127.351000
58.018014	2.537170	127.397000
58.050396	2.536867	127.443000
58.071349	2.532723	127.488000
58.092152	2.528808	127.534000
58.356475	2.672180	127.580000
58.377393	2.837881	128.157000
58.397155	2.845170	128.202000
58.418926	2.853564	128.248000
58.440274	2.871553	128.294000
58.461054	2.849500	128.340000
58.483013	2.848456	128.386000
58.503394	2.880230	128.432000
58.524289	2.919153	128.478000
58.545518	2.948771	128.523000
58.565841	2.969110	128.569000
58.586886	2.979121	128.615000
58.608926	2.984690	128.661000
58.679848	3.099735	128.706000
58.700513	3.123829	128.862000
58.771781	3.135094	128.908000
58.792745	3.112703	129.064000
58.814501	3.097851	129.110000
58.835711	3.084407	129.156000
58.857032	3.074101	129.201000
58.877194	3.061636	129.247000
58.898627	3.063481	129.293000
58.919103	3.070699	129.338000
58.940106	3.077745	129.384000
58.961282	3.090784	129.430000
58.981535	3.092941	129.475000
59.002500	3.093293	129.522000
59.023291	3.113571	129.567000
59.044924	3.136949	129.613000
59.065458	3.143601	129.659000
59.085665	3.130733	129.705000
59.107306	3.110910	129.750000
59.178881	3.209952	129.796000
59.200283	3.236048	129.952000
59.271367	3.237184	129.998000
59.292469	3.126410	130.154000
59.313580	3.098864	130.200000
59.334102	3.073606	130.246000
59.356342	3.051201	130.292000
59.377314	3.032402	130.338000
59.397986	3.023682	130.384000
59.418466	3.032321	130.429000
59.439200	3.044639	130.475000
59.459953	3.036731	130.520000
59.481425	3.010039	130.566000
59.502808	2.978399	130.612000
59.523787	2.941965	130.658000
59.544471	2.905585	130.704000
59.565113	2.917336	130.750000
59.586008	2.980586	130.795000
59.607038	3.037643	130.841000
59.679293	2.976560	130.887000
59.701045	2.943748	131.046000
59.773054	2.934139	131.092000
59.794084	2.926532	131.248000
59.814652	2.901592	131.294000
59.835344	2.871492	131.340000
59.856012	2.848364	131.385000
59.877515	2.836705	131.431000
59.899070	2.838214	131.477000
59.919474	2.847239	131.522000
59.940861	2.853710	131.568000
59.961483	2.855906	131.614000
59.981963	2.850454	131.659000
60.003135	2.834312	131.705000
60.024468	2.807437	131.751000
60.045959	2.770533	131.796000
60.066793	2.724576	131.842000
60.086823	2.676439	131.888000
60.108011	2.632613	131.933000
60.183850	2.507536	131.980000
60.205375	2.502440	132.146000
60.276297	2.493010	132.192000
60.297876	2.387833	132.348000
60.318691	2.377697	132.394000
60.339559	2.376450	132.440000
60.361376	2.381942	132.485000
60.382041	2.397516	132.531000
60.403228	2.424818	132.577000
60.423858	2.451464	132.623000
60.444561	2.480144	132.669000
60.464865	2.510311	132.714000
60.486313	2.540703	132.760000
60.507519	2.566631	132.806000
60.529433	2.591727	132.852000
60.549840	2.614615	132.897000
60.570209	2.631792	132.943000
60.591819	2.653002	132.989000
60.612794	2.680744	133.035000
60.875745	2.788140	133.081000
60.896890	2.691373	133.657000
60.918546	2.660334	133.703000
60.939837	2.621257	133.749000
60.961185	2.572745	133.794000
60.981873	2.528899	133.840000
61.002918	2.494125	133.886000
61.023709	2.471982	133.932000
61.044758	2.462574	133.978000
61.065926	2.466526	134.024000
61.086368	2.478392	134.069000
61.107282	2.480754	134.115000
61.128858	2.475632	134.161000
61.199384	2.392799	134.207000
61.220164	2.372291	134.363000
61.292177	2.352146	134.408000
61.313775	2.293780	134.564000
61.334378	2.299751	134.611000
61.355627	2.312789	134.657000
61.376380	2.330895	134.702000
61.396914	2.351600	134.748000
61.418009	2.373679	134.794000
61.438731	2.400089	134.840000
61.459861	2.431025	134.886000
61.481278	2.464073	134.931000
61.502458	2.494186	134.977000
61.523484	2.510664	135.023000
61.543860	2.511212	135.069000
61.564575	2.506784	135.114000
61.585850	2.503181	135.160000
61.607322	2.499678	135.206000
61.628770	2.502390	135.252000
61.699704	2.591574	135.297000
61.720630	2.603439	135.454000
61.791510	2.612054	135.499000
61.812416	2.646060	135.656000
61.834545	2.652084	135.702000
61.855689	2.664796	135.747000
61.876154	2.690703	135.793000
61.897272	2.729391	135.839000
61.918313	2.765643	135.885000
61.939470	2.779908	135.931000
61.960284	2.761276	135.976000
61.981694	2.717139	136.022000
62.003146	2.666409	136.068000
62.024387	2.630365	136.114000
62.044845	2.620717	136.160000
62.066059	2.627563	136.206000
62.087246	2.639367	136.252000
62.107684	2.643802	136.298000
62.129178	2.648479	136.343000
62.201126	2.722264	136.389000
62.222413	2.746351	136.546000
62.292993	2.778054	136.592000
62.314638	2.919112	136.748000
62.335229	2.924604	136.794000
62.356297	2.889719	136.840000
62.377554	2.868024	136.886000
62.398944	2.854871	136.931000
62.419955	2.817583	136.977000
62.440585	2.772134	137.023000
62.461184	2.751554	137.069000
62.482348	2.768202	137.115000
62.502029	2.825684	137.160000
62.523570	2.919031	137.206000
62.545118	3.027947	137.252000
62.565587	3.129377	137.297000
62.586793	3.206151	137.343000
62.607197	3.264936	137.389000
62.628426	3.319723	137.435000
62.704984	3.430819	137.480000
62.725929	3.448364	137.646000
62.796874	3.454741	137.692000
62.817673	3.425668	137.848000
62.839602	3.396186	137.894000
62.861385	3.358715	137.940000
62.882069	3.319103	137.985000
62.903279	3.280245	138.031000
62.923790	3.243146	138.077000
62.944777	3.211991	138.123000
62.965592	3.186455	138.168000
62.986771	3.157264	138.214000
63.008415	3.131615	138.260000
63.029099	3.126469	138.306000
63.050167	3.130184	138.352000
63.070632	3.131706	138.397000
63.090329	3.153534	138.443000
63.111278	3.187010	138.489000
63.132860	3.216625	138.534000
63.397909	3.456826	138.581000
63.419154	3.593556	139.157000
63.440060	3.590887	139.203000
63.460794	3.589998	139.249000
63.481013	3.589043	139.295000
63.502158	3.583891	139.340000
63.523426	3.584460	139.386000
63.544041	3.597468	139.432000
63.565212	3.621758	139.478000
63.586918	3.654699	139.524000
63.607437	3.692869	139.570000
63.628244	3.742013	139.615000
63.649012	3.798857	139.661000
63.720222	3.903474	139.707000
63.742062	3.904638	139.863000
63.814283	3.907138	139.909000
63.834913	3.850592	140.064000
63.855432	3.829673	140.110000
63.877015	3.819674	140.156000
63.897618	3.827324	140.202000
63.918259	3.845490	140.248000
63.939927	3.862507	140.294000
63.960707	3.875698	140.339000
63.981287	3.881458	140.385000
64.002144	3.880234	140.431000
64.022409	3.872617	140.476000
64.043262	3.862858	140.522000
64.064545	3.860571	140.568000
64.086020	3.870556	140.614000
64.107630	3.882532	140.660000
64.128575	3.892521	140.706000
64.148705	3.897029	140.751000
64.219720	3.975748	140.797000
64.240938	4.029234	140.953000
64.312882	4.066172	140.999000
64.333781	4.122803	141.155000
64.354641	4.142422	141.201000
64.375314	4.162200	141.246000
64.396132	4.179719	141.292000
64.417561	4.196957	141.338000
64.438752	4.211768	141.384000
64.460101	4.227475	141.430000
64.481507	4.246115	141.476000
64.501399	4.278802	141.521000
64.522636	4.317829	141.568000
64.543205	4.340853	141.613000
64.564073	4.331529	141.659000
64.585533	4.287582	141.705000
64.606801	4.223100	141.751000
64.628176	4.166853	141.797000
64.649306	4.136501	141.843000
64.721745	4.160347	141.888000
64.742060	4.168882	142.047000
64.813493	4.166440	142.092000
64.834953	4.095379	142.248000
64.856528	4.080089	142.294000
64.877458	4.061781	142.340000
64.898350	4.034600	142.386000
64.919064	3.995844	142.431000
64.940624	3.954307	142.477000
64.960416	3.917578	142.523000
64.981277	3.894161	142.569000
65.002829	3.884372	142.615000
65.023882	3.888495	142.660000
65.044842	3.904246	142.706000
65.065349	3.927421	142.752000
65.086264	3.952285	142.797000
65.107401	3.972155	142.843000
65.128623	3.980955	142.889000
65.149883	3.982099	142.935000
65.225319	4.049359	142.980000
65.246057	4.093565	143.147000
65.318035	4.131828	143.192000
65.339633	4.289290	143.348000
65.360410	4.341408	143.394000
65.381109	4.381550	143.440000
65.402330	4.408925	143.486000
65.423091	4.435265	143.532000
65.443883	4.459636	143.578000
65.465442	4.487606	143.624000
65.486280	4.519890	143.670000
65.507525	4.563179	143.715000
65.528639	4.587115	143.761000
65.549192	4.585748	143.807000
65.569745	4.582719	143.852000
65.590836	4.593158	143.898000
65.612250	4.612066	143.944000
65.633733	4.611123	143.989000
65.654371	4.593107	144.035000
65.918597	4.633630	144.081000
65.939335	4.295011	144.657000
65.960049	4.222038	144.703000
65.980856	4.160316	144.749000
66.001709	4.110758	144.794000
66.022501	4.074698	144.840000
66.044706	4.054462	144.886000
66.065297	4.051661	144.932000
66.086135	4.064931	144.978000
66.107288	4.092254	145.023000
66.127487	4.129758	145.069000
66.148394	4.168020	145.115000
66.169424	4.203812	145.161000
66.242002	4.290994	145.207000
66.262201	4.325334	145.363000
66.334211	4.367880	145.408000
66.354664	4.563068	145.564000
66.375602	4.625754	145.611000
66.396792	4.684169	145.656000
66.418260	4.736081	145.702000
66.439397	4.764085	145.748000
66.460066	4.763415	145.794000
66.480934	4.782835	145.840000
66.500972	4.825527	145.885000
66.522186	4.865385	145.931000
66.543301	4.886617	145.977000
66.564837	4.885839	146.022000
66.586044	4.875386	146.068000
66.607196	4.875526	146.114000
66.627919	4.893188	146.160000
66.648794	4.917816	146.205000
66.669686	4.925398	146.251000
66.740981	4.852487	146.297000
66.762379	4.809136	146.453000
66.833712	4.770127	146.499000
66.854788	4.641751	146.655000
66.875710	4.634088	146.701000
66.896770	4.625633	146.747000
66.918077	4.628269	146.792000
66.939475	4.630448	146.838000
66.959890	4.630111	146.884000
66.981119	4.635102	146.930000
67.001673	4.650136	146.976000
67.022295	4.685011	147.021000
67.043163	4.730800	147.067000
67.064393	4.770249	147.113000
67.085261	4.809347	147.159000
67.107074	4.856384	147.204000
67.127458	4.911467	147.250000
67.148388	4.970836	147.296000
67.169479	5.027036	147.342000
67.241104	5.070336	147.388000
67.262403	5.068665	147.547000
67.334674	5.055819	147.592000
67.356333	4.987039	147.748000
67.377048	5.014009	147.794000
67.397739	5.056466	147.840000
67.418116	5.104770	147.886000
67.438746	5.153837	147.932000
67.460175	5.208576	147.978000
67.481512	5.280879	148.023000
67.502718	5.360378	148.069000
67.523748	5.422458	148.115000
67.544247	5.470098	148.161000
67.565085	5.509606	148.207000
67.585761	5.545384	148.252000
67.607252	5.580086	148.298000
67.628420	5.610189	148.344000
67.649726	5.628550	148.390000
67.670817	5.651377	148.435000
67.746269	5.816477	148.481000
67.767544	5.883516	148.647000
67.838278	5.935323	148.692000
67.858993	5.929575	148.848000
67.880015	5.921060	148.894000
67.900460	5.936071	148.940000
67.921736	5.970339	148.986000
67.943203	6.015712	149.032000
67.964302	6.063021	149.078000
67.985232	6.108203	149.123000
68.006738	6.142391	149.169000
68.027652	6.162093	149.215000
68.048620	6.173336	149.261000
68.069296	6.178525	149.307000
68.090580	6.193379	149.352000
68.112116	6.231368	149.398000
68.132209	6.270865	149.444000
68.153476	6.298574	149.489000
68.173922	6.325199	149.535000
68.438341	6.404119	149.581000
68.459424	6.382475	150.157000
68.479908	6.367437	150.203000
68.501022	6.353547	150.249000
68.522905	6.332316	150.295000
68.543758	6.318092	150.341000
68.564695	6.318567	150.386000
68.585748	6.339100	150.432000
68.606239	6.372758	150.478000
68.627092	6.415051	150.524000
68.647868	6.443247	150.569000
68.669467	6.449493	150.615000
68.691157	6.431382	150.661000
68.761914	6.471252	150.707000
68.782798	6.496610	150.863000
68.854077	6.508505	150.909000
68.875468	6.569115	151.065000
68.897419	6.587371	151.111000
68.918403	6.609685	151.157000
68.938902	6.648889	151.202000
68.958480	6.693984	151.248000
68.979886	6.743543	151.294000
69.000339	6.791459	151.340000
69.021861	6.813522	151.386000
69.043643	6.802762	151.431000
69.064826	6.794590	151.477000
69.085733	6.818867	151.523000
69.106348	6.864748	151.568000
69.127362	6.898167	151.614000
69.148292	6.930989	151.660000
69.168976	6.972527	151.706000
69.189990	7.033429	151.752000
69.261815	7.183625	151.797000
69.282706	7.216097	151.953000
69.353494	7.247797	151.999000
69.374401	7.378722	152.155000
69.396006	7.410381	152.201000
69.417236	7.459257	152.246000
69.438219	7.521288	152.293000
69.459625	7.568746	152.338000
69.479941	7.593697	152.384000
69.501047	7.592552	152.430000
69.521900	7.577403	152.476000
69.542415	7.578347	152.521000
69.564297	7.597802	152.567000
69.585027	7.622035	152.613000
69.606203	7.630155	152.659000
69.627156	7.622816	152.704000
69.647647	7.631464	152.750000
69.668347	7.699200	152.796000
69.689522	7.785147	152.842000
69.762292	7.932242	152.888000
69.783537	7.925478	153.047000
69.855239	7.896987	153.093000
69.876269	7.833811	153.249000
69.897129	7.818576	153.294000
69.918097	7.812140	153.340000
69.938912	7.810487	153.386000
69.960518	7.808404	153.432000
69.982377	7.805344	153.478000
70.003007	7.809261	153.524000
70.023253	7.819429	153.570000
70.044267	7.831665	153.616000
70.065182	7.841120	153.662000
70.085881	7.856650	153.708000
70.107279	7.891611	153.753000
70.127779	7.932771	153.799000
70.149085	7.974450	153.844000
70.169846	8.020364	153.890000
70.190307	8.074677	153.936000
70.357184	8.205971	153.982000
70.378137	8.540993	154.345000
70.400111	8.596860	154.391000
70.421348	8.633842	154.437000
70.442532	8.659583	154.483000
70.462778	8.684997	154.528000
70.483223	8.710527	154.574000
70.504652	8.738177	154.620000
70.525259	8.771103	154.666000
70.546965	8.818884	154.712000
70.568440	8.873894	154.757000
70.588371	8.941871	154.803000
70.609370	8.997497	154.849000
70.630085	9.053671	154.895000
70.650930	9.105817	154.940000
70.671890	9.152906	154.986000
70.693527	9.199624	155.032000
70.958706	9.765551	155.078000
70.979690	9.720879	155.658000
71.001488	9.700532	155.703000
71.022755	9.685223	155.749000
71.043170	9.681290	155.795000
71.063240	9.685334	155.841000
71.084577	9.700573	155.886000
71.105376	9.737133	155.932000
71.126328	9.767253	155.978000
71.147865	9.770569	156.024000
71.169141	9.744109	156.069000
71.189502	9.707862	156.115000
71.210024	9.681322	156.161000
71.281519	9.668667	156.206000
71.301842	9.667328	156.362000
71.373959	9.678636	156.408000
71.395465	9.940901	156.564000
71.416164	10.034222	156.610000
71.437094	10.126045	156.656000
71.457977	10.205256	156.702000
71.479383	10.268898	156.748000
71.500567	10.305334	156.794000
71.521427	10.314114	156.839000
71.542733	10.307593	156.886000
71.563924	10.297785	156.931000
71.584723	10.274901	156.977000
71.605238	10.237595	157.023000
71.626399	10.187170	157.069000
71.646952	10.134815	157.115000
71.668481	10.090225	157.160000
71.689779	10.050341	157.206000
71.710878	10.023148	157.252000
71.781197	10.085420	157.298000
71.802327	10.136557	157.454000
71.873798	10.196101	157.499000
71.895227	10.417992	157.655000
71.916749	10.486852	157.701000
71.937555	10.557348	157.747000
71.958078	10.628131	157.793000
71.979046	10.695725	157.838000
71.999738	10.760773	157.884000
72.020537	10.825290	157.930000
72.042196	10.886257	157.976000
72.063341	10.939171	158.022000
72.084286	10.985111	158.067000
72.105085	11.026168	158.113000
72.125239	11.063155	158.159000
72.146515	11.110696	158.204000
72.167129	11.173251	158.250000
72.188751	11.249542	158.296000
72.209926	11.344546	158.341000
72.283987	11.673609	158.387000
72.304686	11.778729	158.547000
72.375290	11.884149	158.593000
72.396350	12.238888	158.749000
72.417341	12.334187	158.795000
72.438947	12.428795	158.840000
72.460253	12.502416	158.886000
72.480499	12.555082	158.932000
72.501344	12.623364	158.977000
72.522051	12.690809	159.024000
72.542735	12.730094	159.069000
72.563703	12.747736	159.115000
72.585701	12.759881	159.161000
72.607315	12.774888	159.207000
72.628237	12.783730	159.253000
72.649151	12.783222	159.299000
72.669866	12.788238	159.344000
72.690818	12.797405	159.390000
72.710757	12.813527	159.436000
72.787361	12.958816	159.482000
72.807761	13.053248	159.647000
72.879632	13.153429	159.693000
72.900969	13.474014	159.849000
72.922344	13.540728	159.895000
72.943143	13.607814	159.941000
72.963673	13.682583	159.986000
72.984810	13.765363	160.032000
73.005325	13.857224	160.078000
73.026739	13.951480	160.124000
73.047715	14.059265	160.170000
73.068468	14.183442	160.215000
73.089544	14.280911	160.261000
73.110404	14.348054	160.307000
73.131334	14.380268	160.353000
73.152371	14.385437	160.399000
73.173301	14.381656	160.445000
73.194346	14.379636	160.491000
73.215875	14.382679	160.536000
73.479679	15.228270	160.582000
73.501423	15.668546	161.158000
73.521485	15.722158	161.204000
73.542261	15.774423	161.250000
73.563582	15.838851	161.295000
73.584197	15.939678	161.342000
73.605372	16.068154	161.387000
73.626863	16.183012	161.433000
73.648169	16.275112	161.479000
73.669084	16.352989	161.525000
73.689668	16.428774	161.570000
73.710398	16.496632	161.616000
73.731543	16.562924	161.662000
73.802837	16.931591	161.708000
73.824167	17.067709	161.864000
73.895915	17.200960	161.910000
73.916391	17.612500	162.065000
73.937474	17.761602	162.111000
73.958243	17.933243	162.157000
73.979050	18.082486	162.203000
74.000141	18.187614	162.248000
74.021462	18.267147	162.294000
74.042261	18.333240	162.340000
74.062761	18.382177	162.386000
74.083568	18.429583	162.431000
74.104989	18.491519	162.477000
74.125604	18.578831	162.523000
74.147417	18.678857	162.568000
74.168508	18.781591	162.614000
74.189461	18.880711	162.660000
74.210137	18.969195	162.706000
74.230629	19.042764	162.752000
74.302247	19.203595	162.798000
74.323514	19.261820	162.954000
74.395846	19.313975	163.000000
74.417014	19.448453	163.155000
74.437783	19.533653	163.201000
74.458036	19.645301	163.247000
74.478905	19.768007	163.293000
74.499550	19.892286	163.339000
74.521056	20.019500	163.385000
74.542693	20.145369	163.430000
74.563715	20.269344	163.476000
74.583738	20.387012	163.522000
74.605029	20.493291	163.568000
74.626050	20.599156	163.614000
74.646734	20.703481	163.659000
74.668125	20.800971	163.705000
74.689500	20.909029	163.751000
74.709800	21.047352	163.797000
74.730592	21.206243	163.842000
74.803638	21.657199	163.888000
74.824176	21.739507	164.047000
74.895916	21.831178	164.093000
74.917461	22.229471	164.249000
74.938437	22.364640	164.295000
74.959474	22.503622	164.341000
74.980043	22.649673	164.386000
75.000388	22.791294	164.432000
75.021933	22.933289	164.478000
75.042478	23.078170	164.524000
75.063400	23.220907	164.569000
75.084906	23.357170	164.615000
75.105590	23.488589	164.661000
75.126943	23.615591	164.707000
75.147803	23.749387	164.753000
75.168003	23.902392	164.798000
75.189025	24.073417	164.844000
75.210216	24.257394	164.890000
75.231538	24.434713	164.936000
75.306889	24.892680	164.982000
75.327896	25.000226	165.147000
75.399959	25.093624	165.193000
75.420950	25.368400	165.349000
75.441742	25.459027	165.395000
75.462571	25.561424	165.441000
75.483847	25.681108	165.487000
75.504561	25.815243	165.533000
75.525215	25.965350	165.578000
75.546482	26.123904	165.624000
75.567589	26.280873	165.670000
75.588250	26.441841	165.715000
75.609272	26.605827	165.761000
75.630194	26.770353	165.807000
75.651239	26.930178	165.853000
75.672153	27.089315	165.898000
75.693720	27.253085	165.944000
75.715165	27.393625	165.990000
75.735711	27.497436	166.036000
75.999276	28.128584	166.081000
76.020567	28.689402	166.658000
76.041274	28.786001	166.704000
76.062234	28.880792	166.750000
76.083441	28.976143	166.796000
76.104893	29.065691	166.841000
76.126591	29.151035	166.887000
76.147298	29.234268	166.933000
76.167936	29.316178	166.979000
76.188727	29.399000	167.025000
76.209864	29.487604	167.070000
76.230295	29.587366	167.116000
76.251347	29.697479	167.162000
76.323664	30.164041	167.208000
76.344379	30.309922	167.364000
76.415497	30.468643	167.410000
76.436764	31.048270	167.566000
76.457540	31.203192	167.612000
76.478847	31.352169	167.658000
76.500576	31.501661	167.703000
76.520983	31.657305	167.749000
76.541759	31.817591	167.794000
76.562289	31.981422	167.840000
76.582727	32.145741	167.886000
76.603849	32.302964	167.932000
76.625155	32.451584	167.977000
76.646607	32.598774	168.023000
76.667714	32.747660	168.069000
76.687875	32.898109	168.115000
76.708259	33.041742	168.161000
76.729281	33.170358	168.206000
76.750564	33.304000	168.252000
76.823004	33.748732	168.298000
76.844272	33.883165	168.454000
76.915474	34.042331	168.500000
76.936097	34.680399	168.656000
76.957503	34.866939	168.702000
76.978348	35.048172	168.748000
76.999432	35.223396	168.794000
77.021099	35.391228	168.840000
77.041560	35.554710	168.885000
77.062351	35.720039	168.931000
77.082997	35.884664	168.977000
77.104157	36.052388	169.022000
77.125048	36.218371	169.068000
77.146385	36.382120	169.114000
77.167208	36.543731	169.160000
77.188591	36.706986	169.206000
77.209059	36.863063	169.251000
77.229205	37.019612	169.297000
77.250704	37.170868	169.343000
77.322974	37.542381	169.389000
77.344042	37.660171	169.548000
77.416413	37.809037	169.593000
77.437465	38.429159	169.749000
77.458372	38.620103	169.795000
77.479263	38.801655	169.841000
77.499724	38.970747	169.887000
77.521238	39.130245	169.933000
77.542191	39.289405	169.978000
77.563397	39.461517	170.024000
77.584757	39.640250	170.070000
77.605587	39.822375	170.116000
77.625864	39.996893	170.161000
77.646386	40.166469	170.207000
77.667654	40.343780	170.253000
77.688599	40.547904	170.299000
77.710781	40.753857	170.344000
77.731542	40.940810	170.390000
77.751342	41.111610	170.436000
77.827155	41.690023	170.482000
77.848692	41.871306	170.648000
77.921001	42.035758	170.693000
77.941938	42.594380	170.849000
77.963436	42.750353	170.895000
77.983483	42.888100	170.941000
78.004681	43.019112	170.987000
78.026256	43.148653	171.033000
78.047424	43.284785	171.079000
78.068492	43.428294	171.124000
78.088884	43.579361	171.170000
78.109053	43.739172	171.216000
78.130244	43.914181	171.262000
78.150813	44.101866	171.307000
78.172196	44.275160	171.353000
78.193771	44.465687	171.399000
78.214801	44.661204	171.444000
78.235377	44.876851	171.490000
78.256099	45.105737	171.536000
78.519734	47.093616	171.582000
