Sample	2mm tape 
date	07/01/2025
	
Temperature (K)	77.00
Angle (deg.)	0.000000
field / T	0.300000
	
		
Approx. trace time (s)	120.0	
		
Current / A	V1  -sample/ uV	time/s
-0.022797	-1.722884	0.000000
-0.022338	-1.767102	0.046000
-0.022816	-1.813179	0.092000
-0.022374	-1.854348	0.138000
-0.022147	-1.883972	0.183000
-0.022678	-1.894678	0.229000
-0.023144	-1.903001	0.275000
-0.022642	-1.904292	0.320000
-0.022816	-1.867305	0.366000
-0.022822	-1.854554	0.533000
-0.022421	-1.862409	0.579000
-0.016801	-1.840265	0.735000
-0.001350	-1.808256	0.781000
0.023453	-1.784486	0.827000
0.047134	-1.762173	0.873000
0.068470	-1.755751	0.919000
0.088281	-1.750238	0.964000
0.108438	-1.758648	1.010000
0.129613	-1.766719	1.056000
0.149939	-1.768376	1.102000
0.170392	-1.765464	1.148000
0.193481	-1.777410	1.194000
0.214909	-1.816809	1.240000
0.234960	-1.857633	1.285000
0.255316	-1.887449	1.331000
0.275683	-1.916650	1.377000
0.297433	-1.931005	1.422000
0.372625	-1.886600	1.468000
0.392802	-1.850789	1.633000
0.465195	-1.806922	1.678000
0.485814	-1.638208	1.836000
0.507615	-1.608762	1.881000
0.528801	-1.590618	1.927000
0.550240	-1.576314	1.973000
0.569413	-1.565759	2.018000
0.590126	-1.560378	2.064000
0.610703	-1.532314	2.110000
0.632434	-1.498566	2.155000
0.653286	-1.506970	2.201000
0.675350	-1.534292	2.247000
0.695269	-1.581952	2.292000
0.717688	-1.614573	2.339000
0.736836	-1.621433	2.384000
0.757507	-1.606694	2.430000
0.779152	-1.577752	2.476000
0.800634	-1.534726	2.521000
1.065374	-1.677944	2.567000
1.087383	-2.113553	3.148000
1.108497	-2.157287	3.194000
1.130279	-2.190205	3.240000
1.150354	-2.212125	3.286000
1.171906	-2.221122	3.331000
1.191295	-2.232736	3.377000
1.212745	-2.215200	3.423000
1.233962	-2.183798	3.468000
1.254622	-2.135043	3.514000
1.276667	-2.075498	3.560000
1.297618	-2.022329	3.606000
1.318862	-1.995705	3.652000
1.388384	-2.002873	3.697000
1.409613	-2.006880	3.853000
1.481449	-2.009444	3.899000
1.503032	-1.857229	4.054000
1.524164	-1.806841	4.100000
1.544203	-1.769662	4.146000
1.565487	-1.743322	4.191000
1.586361	-1.720151	4.238000
1.607601	-1.705631	4.283000
1.628358	-1.694931	4.329000
1.649928	-1.698464	4.375000
1.671515	-1.722540	4.421000
1.691569	-1.764320	4.467000
1.712780	-1.809311	4.513000
1.732998	-1.841819	4.558000
1.753636	-1.864305	4.604000
1.775251	-1.874941	4.650000
1.796722	-1.876633	4.695000
1.817822	-1.865144	4.741000
1.889919	-1.855982	4.787000
1.909635	-1.849149	4.942000
1.981962	-1.810746	4.989000
2.002585	-1.745589	5.145000
2.024187	-1.783765	5.191000
2.044602	-1.824653	5.236000
2.065994	-1.847386	5.282000
2.086164	-1.860859	5.328000
2.107325	-1.865128	5.373000
2.127913	-1.855130	5.419000
2.149549	-1.821806	5.465000
2.171436	-1.777480	5.511000
2.191603	-1.720857	5.557000
2.212760	-1.674492	5.602000
2.233869	-1.628540	5.648000
2.253861	-1.593944	5.694000
2.274784	-1.543751	5.739000
2.296859	-1.487617	5.785000
2.317899	-1.441416	5.831000
2.389152	-1.371838	5.877000
2.409908	-1.382158	6.033000
2.481529	-1.397619	6.079000
2.502238	-1.434411	6.236000
2.524055	-1.439448	6.282000
2.545533	-1.420024	6.327000
2.565464	-1.411354	6.373000
2.586313	-1.392203	6.419000
2.607850	-1.377997	6.464000
2.627250	-1.366288	6.510000
2.649116	-1.356125	6.556000
2.670740	-1.345980	6.602000
2.691461	-1.337638	6.648000
2.713153	-1.334281	6.693000
2.733461	-1.322970	6.739000
2.754559	-1.317759	6.785000
2.775446	-1.327063	6.831000
2.796351	-1.345576	6.876000
2.817757	-1.370270	6.922000
2.893385	-1.420965	6.968000
2.914249	-1.418667	7.133000
2.986493	-1.409824	7.178000
3.008320	-1.345516	7.336000
3.028683	-1.322356	7.382000
3.049092	-1.313062	7.427000
3.070002	-1.321685	7.473000
3.090666	-1.339503	7.519000
3.111440	-1.378220	7.565000
3.133353	-1.430893	7.611000
3.153517	-1.464803	7.656000
3.174865	-1.471435	7.702000
3.195706	-1.456726	7.748000
3.216297	-1.411263	7.794000
3.237879	-1.362830	7.840000
3.258809	-1.331706	7.886000
3.280218	-1.296001	7.932000
3.301474	-1.247977	7.977000
3.322719	-1.205740	8.023000
3.587816	-1.308333	8.069000
3.608367	-1.930374	8.648000
3.630113	-2.030901	8.694000
3.650427	-2.121843	8.740000
3.671674	-2.202498	8.786000
3.692180	-2.275667	8.831000
3.713344	-2.332724	8.877000
3.734036	-2.376603	8.923000
3.755295	-2.415626	8.969000
3.776177	-2.453856	9.015000
3.797482	-2.473736	9.060000
3.818221	-2.502925	9.106000
3.839164	-2.528342	9.151000
3.910769	-2.610120	9.198000
3.932536	-2.629739	9.353000
4.003177	-2.650181	9.399000
4.024190	-2.705613	9.554000
4.045834	-2.711472	9.600000
4.065902	-2.709831	9.646000
4.086179	-2.691045	9.692000
4.107900	-2.677805	9.737000
4.129343	-2.644884	9.783000
4.150427	-2.607184	9.829000
4.171021	-2.569778	9.875000
4.192268	-2.526776	9.920000
4.212785	-2.475325	9.966000
4.233705	-2.428239	10.012000
4.255108	-2.376280	10.057000
4.276439	-2.331386	10.103000
4.297065	-2.284061	10.149000
4.318082	-2.232301	10.195000
4.338640	-2.171952	10.240000
4.410836	-1.970219	10.286000
4.431099	-1.931368	10.442000
4.502948	-1.907705	10.488000
4.523873	-1.879726	10.643000
4.544818	-1.914398	10.689000
4.565269	-1.962401	10.735000
4.586448	-2.009171	10.781000
4.608146	-2.062660	10.827000
4.629086	-2.110736	10.872000
4.650510	-2.160149	10.918000
4.671429	-2.195713	10.964000
4.691793	-2.223939	11.009000
4.713358	-2.232857	11.055000
4.734123	-2.220416	11.101000
4.755597	-2.193637	11.147000
4.776790	-2.169998	11.193000
4.797505	-2.133291	11.238000
4.818440	-2.101577	11.284000
4.839374	-2.062650	11.330000
4.910322	-1.948464	11.376000
4.931373	-1.911550	11.533000
5.003502	-1.859172	11.579000
5.025390	-1.762283	11.736000
5.046230	-1.742460	11.782000
5.067143	-1.724784	11.827000
5.087510	-1.701693	11.873000
5.108438	-1.713962	11.919000
5.129174	-1.702148	11.964000
5.149738	-1.672244	12.010000
5.171760	-1.664704	12.056000
5.192952	-1.693705	12.101000
5.213476	-1.702017	12.147000
5.234423	-1.676090	12.193000
5.254901	-1.609689	12.239000
5.276220	-1.568323	12.285000
5.297036	-1.535791	12.331000
5.318553	-1.497732	12.376000
5.339822	-1.496263	12.422000
5.414897	-1.602819	12.468000
5.436384	-1.606095	12.633000
5.508227	-1.596886	12.679000
5.529001	-1.665308	12.836000
5.549763	-1.733382	12.882000
5.570541	-1.796165	12.927000
5.591614	-1.846826	12.973000
5.613402	-1.889892	13.019000
5.634973	-1.930418	13.065000
5.655817	-1.958064	13.110000
5.676489	-1.983176	13.156000
5.697437	-2.010458	13.202000
5.717978	-2.046869	13.248000
5.738369	-2.074686	13.294000
5.759709	-2.091531	13.339000
5.781153	-2.065644	13.385000
5.802639	-2.019287	13.431000
5.823575	-1.979648	13.477000
5.844014	-1.982060	13.523000
6.110443	-1.868767	13.568000
6.131082	-1.577307	14.148000
6.151879	-1.550035	14.194000
6.172921	-1.527498	14.239000
6.193061	-1.523939	14.286000
6.214541	-1.519612	14.331000
6.235681	-1.522895	14.377000
6.257029	-1.558887	14.423000
6.277621	-1.646003	14.469000
6.298611	-1.759872	14.515000
6.319308	-1.887206	14.560000
6.340183	-2.000237	14.606000
6.361529	-2.089922	14.652000
6.433552	-2.259963	14.697000
6.454412	-2.283546	14.853000
6.525167	-2.301560	14.899000
6.546300	-2.384887	15.055000
6.567572	-2.429334	15.100000
6.589244	-2.484986	15.146000
6.610609	-2.541483	15.192000
6.631406	-2.594783	15.238000
6.652279	-2.638206	15.284000
6.672789	-2.666642	15.329000
6.693723	-2.685306	15.375000
6.714078	-2.693811	15.421000
6.735732	-2.688349	15.467000
6.757679	-2.661810	15.512000
6.777870	-2.630842	15.558000
6.798207	-2.594003	15.604000
6.819490	-2.519110	15.649000
6.839849	-2.447042	15.695000
6.861325	-2.372489	15.741000
6.932709	-2.125337	15.786000
6.954001	-2.073916	15.942000
7.024322	-2.022552	15.988000
7.045743	-1.772600	16.144000
7.066727	-1.678368	16.190000
7.087691	-1.595344	16.236000
7.109725	-1.542383	16.282000
7.129876	-1.510700	16.327000
7.150636	-1.507383	16.373000
7.171958	-1.500418	16.419000
7.192206	-1.485225	16.465000
7.213404	-1.482261	16.510000
7.234732	-1.474801	16.556000
7.255578	-1.464832	16.602000
7.276649	-1.460027	16.648000
7.297578	-1.473675	16.693000
7.318646	-1.490342	16.739000
7.339418	-1.506379	16.785000
7.359910	-1.506939	16.830000
7.432434	-1.604749	16.876000
7.453930	-1.656785	17.033000
7.525640	-1.723337	17.079000
7.546554	-1.882886	17.236000
7.566893	-1.937869	17.282000
7.587870	-1.998950	17.328000
7.608070	-2.051522	17.373000
7.629709	-2.085387	17.419000
7.650841	-2.100977	17.465000
7.672042	-2.102903	17.511000
7.693167	-2.092675	17.556000
7.713677	-2.087564	17.602000
7.733935	-2.118491	17.648000
7.755134	-2.164724	17.694000
7.776309	-2.212739	17.740000
7.797809	-2.238647	17.786000
7.818602	-2.251589	17.831000
7.839879	-2.246582	17.877000
7.860645	-2.237544	17.923000
7.966275	-2.020431	17.968000
8.038565	-1.996030	18.201000
8.059287	-2.018850	18.357000
8.081228	-2.062010	18.403000
8.102246	-2.107981	18.449000
8.123031	-2.147128	18.495000
8.143846	-2.170263	18.541000
8.165692	-2.184648	18.586000
8.186566	-2.219240	18.632000
8.206994	-2.258766	18.678000
8.227982	-2.299591	18.724000
8.248773	-2.325070	18.769000
8.269506	-2.326661	18.815000
8.290244	-2.320093	18.861000
8.311548	-2.294543	18.907000
8.333134	-2.259720	18.952000
8.354083	-2.220847	18.998000
8.374505	-2.182965	19.044000
8.631038	-1.930271	19.090000
8.651883	-2.089200	19.649000
8.671854	-2.101906	19.694000
8.693301	-2.107859	19.740000
8.714737	-2.096513	19.786000
8.735970	-2.077325	19.832000
8.757162	-2.042845	19.878000
8.777458	-1.998756	19.924000
8.798256	-1.953903	19.970000
8.819224	-1.911588	20.015000
8.840011	-1.860845	20.061000
8.861576	-1.788449	20.107000
8.882711	-1.723823	20.153000
8.953926	-1.560587	20.198000
8.975106	-1.555328	20.355000
9.045491	-1.593901	20.400000
9.067095	-1.938292	20.556000
9.088497	-1.978560	20.602000
9.109427	-1.994742	20.647000
9.129807	-1.989215	20.693000
9.150538	-1.960148	20.739000
9.171252	-1.917459	20.785000
9.192232	-1.866247	20.831000
9.213244	-1.802046	20.877000
9.234358	-1.724104	20.923000
9.256137	-1.633996	20.968000
9.277020	-1.555172	21.014000
9.297674	-1.512555	21.059000
9.318452	-1.505317	21.105000
9.339962	-1.515250	21.151000
9.360317	-1.542452	21.197000
9.381753	-1.580122	21.243000
9.454122	-1.753908	21.289000
9.474221	-1.820107	21.445000
9.545400	-1.875039	21.491000
9.566435	-1.948926	21.646000
9.587609	-1.932410	21.692000
9.608337	-1.905158	21.738000
9.629920	-1.882651	21.784000
9.650581	-1.859811	21.830000
9.671334	-1.824978	21.876000
9.692093	-1.782003	21.921000
9.712495	-1.732043	21.967000
9.733663	-1.677880	22.012000
9.755201	-1.633386	22.058000
9.776449	-1.598018	22.104000
9.797338	-1.572570	22.150000
9.818303	-1.549821	22.196000
9.839457	-1.522468	22.242000
9.860616	-1.483244	22.288000
9.881083	-1.456184	22.334000
9.953268	-1.403598	22.379000
9.974597	-1.378629	22.535000
10.045476	-1.374914	22.581000
10.065737	-1.537575	22.736000
10.086508	-1.596033	22.782000
10.107610	-1.641768	22.828000
10.129116	-1.667009	22.874000
10.150406	-1.680431	22.920000
10.171555	-1.676596	22.966000
10.191474	-1.686647	23.012000
10.212395	-1.743389	23.057000
10.233137	-1.816654	23.103000
10.254143	-1.892030	23.149000
10.275719	-1.970590	23.194000
10.297007	-2.039048	23.240000
10.318098	-2.103575	23.286000
10.338278	-2.162263	23.332000
10.358998	-2.188190	23.377000
10.380580	-2.187701	23.423000
10.456134	-2.165117	23.469000
10.476930	-2.177541	23.634000
10.548394	-2.175172	23.680000
10.569522	-1.954948	23.836000
10.591249	-1.890318	23.882000
10.612293	-1.838086	23.928000
10.633013	-1.789495	23.974000
10.653527	-1.747442	24.019000
10.674540	-1.716889	24.065000
10.695260	-1.669400	24.111000
10.716174	-1.620625	24.157000
10.737826	-1.585366	24.203000
10.759046	-1.566761	24.248000
10.779309	-1.533084	24.294000
10.800289	-1.480028	24.340000
10.820998	-1.438664	24.386000
10.842027	-1.416788	24.431000
10.863099	-1.405310	24.477000
10.884514	-1.409130	24.523000
11.149251	-1.191130	24.569000
11.169969	-1.088051	25.148000
11.191583	-1.082069	25.195000
11.212739	-1.066821	25.240000
11.233881	-1.053692	25.286000
11.254521	-1.062349	25.332000
11.275302	-1.060041	25.378000
11.296505	-1.039865	25.424000
11.317710	-1.015502	25.470000
11.338796	-0.996250	25.516000
11.359955	-0.978892	25.561000
11.381197	-0.967515	25.607000
11.401408	-0.969119	25.653000
11.472519	-1.069702	25.699000
11.493454	-1.102905	25.855000
11.565399	-1.140667	25.901000
11.587167	-1.280074	26.056000
11.608185	-1.332857	26.102000
11.628564	-1.388258	26.148000
11.649439	-1.435796	26.194000
11.670746	-1.466373	26.240000
11.691625	-1.479876	26.285000
11.712112	-1.487085	26.331000
11.733820	-1.499391	26.377000
11.755058	-1.523085	26.423000
11.775431	-1.572843	26.469000
11.796280	-1.629863	26.515000
11.817565	-1.690769	26.560000
11.838303	-1.738571	26.606000
11.859498	-1.775048	26.652000
11.881218	-1.814130	26.698000
11.901933	-1.852592	26.743000
11.972342	-1.942459	26.789000
11.993376	-1.943359	26.945000
12.064960	-1.931376	26.991000
12.086197	-1.859922	27.146000
12.107832	-1.838440	27.192000
12.128448	-1.808425	27.238000
12.149223	-1.764115	27.284000
12.170028	-1.689025	27.330000
12.190895	-1.623648	27.375000
12.211872	-1.603663	27.421000
12.233335	-1.626259	27.466000
12.254449	-1.660937	27.512000
12.275681	-1.666879	27.558000
12.295791	-1.664212	27.604000
12.316574	-1.679095	27.650000
12.337991	-1.720461	27.696000
12.358729	-1.765562	27.741000
12.380324	-1.809700	27.787000
12.401544	-1.855716	27.833000
12.472827	-1.975783	27.879000
12.493565	-2.002364	28.035000
12.564588	-2.032598	28.081000
12.585848	-2.075294	28.237000
12.607333	-2.063560	28.282000
12.628435	-2.031631	28.328000
12.649294	-2.018219	28.374000
12.669857	-1.992265	28.419000
12.690834	-1.956653	28.465000
12.711798	-1.906803	28.511000
12.732944	-1.849560	28.556000
12.754041	-1.784025	28.602000
12.775142	-1.730481	28.648000
12.795987	-1.684359	28.694000
12.816663	-1.652715	28.740000
12.837396	-1.643834	28.785000
12.858589	-1.637568	28.831000
12.879068	-1.624852	28.877000
12.900745	-1.597590	28.923000
12.976306	-1.490542	28.969000
12.996498	-1.473703	29.134000
13.068789	-1.464294	29.180000
13.090279	-1.475223	29.337000
13.111114	-1.471099	29.382000
13.131945	-1.456285	29.428000
13.152801	-1.418917	29.474000
13.173559	-1.385438	29.520000
13.194870	-1.357046	29.566000
13.216064	-1.339441	29.611000
13.237628	-1.333548	29.657000
13.258240	-1.339965	29.703000
13.279127	-1.348715	29.749000
13.299936	-1.388642	29.795000
13.320890	-1.428659	29.840000
13.341712	-1.465218	29.886000
13.362768	-1.503581	29.932000
13.384747	-1.541902	29.978000
13.405708	-1.572045	30.023000
13.671468	-1.381913	30.069000
13.692543	-1.485747	30.649000
13.712490	-1.524220	30.695000
13.733370	-1.563454	30.740000
13.753910	-1.585901	30.786000
13.774932	-1.603259	30.832000
13.795955	-1.625463	30.877000
13.817589	-1.656479	30.923000
13.839000	-1.679115	30.969000
13.859854	-1.681334	31.015000
13.880324	-1.690679	31.061000
13.901351	-1.702804	31.106000
13.922245	-1.719831	31.152000
13.993823	-1.754292	31.198000
14.015122	-1.740718	31.354000
14.085972	-1.720502	31.400000
14.107049	-1.669157	31.555000
14.127797	-1.616207	31.601000
14.148766	-1.547914	31.647000
14.169961	-1.461130	31.693000
14.191099	-1.380046	31.738000
14.212357	-1.320529	31.784000
14.233064	-1.305761	31.830000
14.253642	-1.312460	31.876000
14.274617	-1.337283	31.921000
14.295406	-1.362682	31.967000
14.316352	-1.374823	32.013000
14.337894	-1.378862	32.059000
14.359002	-1.383049	32.104000
14.379897	-1.388106	32.150000
14.400159	-1.398640	32.196000
14.421263	-1.410256	32.242000
14.492847	-1.500601	32.288000
14.514146	-1.496483	32.443000
14.585478	-1.479134	32.489000
14.606089	-1.369475	32.644000
14.626868	-1.331693	32.690000
14.647668	-1.305271	32.736000
14.668815	-1.270136	32.782000
14.690181	-1.232112	32.828000
14.711645	-1.178892	32.874000
14.732665	-1.144215	32.920000
14.753175	-1.151028	32.965000
14.772945	-1.193529	33.011000
14.793865	-1.255606	33.057000
14.815266	-1.330094	33.103000
14.836529	-1.404173	33.148000
14.857747	-1.479674	33.194000
14.879249	-1.542754	33.240000
14.899953	-1.582312	33.286000
14.921112	-1.595645	33.332000
14.991493	-1.546212	33.378000
15.012426	-1.522822	33.534000
15.084967	-1.507820	33.580000
15.106318	-1.555051	33.737000
15.127303	-1.600373	33.782000
15.147994	-1.652936	33.828000
15.168843	-1.700456	33.874000
15.190018	-1.729146	33.920000
15.210518	-1.729186	33.966000
15.231928	-1.718153	34.012000
15.253581	-1.685942	34.057000
15.274347	-1.654353	34.103000
15.294914	-1.630272	34.149000
15.315850	-1.622082	34.195000
15.337041	-1.619811	34.241000
15.357476	-1.611803	34.286000
15.378756	-1.592034	34.332000
15.400590	-1.571607	34.378000
15.421444	-1.542229	34.424000
15.496311	-1.434317	34.469000
15.517711	-1.425202	34.634000
15.589266	-1.428749	34.680000
15.610181	-1.332756	34.837000
15.631170	-1.292323	34.883000
15.651934	-1.247092	34.929000
15.673268	-1.210853	34.974000
15.693588	-1.174719	35.020000
15.714870	-1.138173	35.066000
15.735802	-1.140893	35.111000
15.756889	-1.177502	35.158000
15.777781	-1.213554	35.203000
15.798383	-1.242864	35.249000
15.819658	-1.291790	35.295000
15.841207	-1.334612	35.341000
15.862402	-1.380252	35.387000
15.883403	-1.426185	35.433000
15.904534	-1.457754	35.478000
15.925221	-1.472688	35.524000
16.191099	-1.585466	35.569000
16.212075	-1.462896	36.149000
16.232676	-1.416443	36.195000
16.253341	-1.343608	36.241000
16.274109	-1.282132	36.287000
16.295448	-1.244905	36.332000
16.317511	-1.212399	36.378000
16.337989	-1.170061	36.424000
16.358439	-1.127679	36.470000
16.379784	-1.076991	36.515000
16.399868	-1.035434	36.561000
16.420982	-0.992640	36.607000
16.442473	-0.963633	36.653000
16.514044	-0.871156	36.698000
16.534853	-0.862784	36.854000
16.606081	-0.851232	36.900000
16.626880	-0.848071	37.056000
16.647656	-0.847149	37.102000
16.669500	-0.843404	37.147000
16.690773	-0.852880	37.193000
16.711632	-0.855380	37.239000
16.732443	-0.859432	37.285000
16.752295	-0.848984	37.331000
16.772679	-0.815720	37.377000
16.794026	-0.789591	37.422000
16.815491	-0.787907	37.468000
16.836976	-0.783858	37.514000
16.858159	-0.767559	37.559000
16.879612	-0.735649	37.605000
16.900430	-0.697572	37.651000
16.921485	-0.667180	37.697000
16.942130	-0.640464	37.743000
17.014360	-0.536332	37.789000
17.035534	-0.506809	37.944000
17.104933	-0.459218	37.990000
17.126082	-0.320877	38.146000
17.147109	-0.325615	38.191000
17.168050	-0.360726	38.237000
17.189770	-0.382308	38.283000
17.210834	-0.381588	38.329000
17.231537	-0.381265	38.375000
17.252246	-0.393220	38.420000
17.273241	-0.393211	38.466000
17.293842	-0.381925	38.512000
17.315108	-0.369481	38.558000
17.336664	-0.353790	38.604000
17.358372	-0.342279	38.650000
17.379148	-0.347158	38.695000
17.399513	-0.362202	38.741000
17.420440	-0.384768	38.787000
17.441582	-0.399021	38.833000
17.512972	-0.442747	38.878000
17.534426	-0.430569	39.035000
17.606002	-0.443972	39.080000
17.626422	-0.567238	39.237000
17.647373	-0.578863	39.283000
17.668814	-0.606286	39.329000
17.688841	-0.632111	39.375000
17.710491	-0.642119	39.420000
17.731695	-0.632893	39.466000
17.752817	-0.611287	39.512000
17.773699	-0.611267	39.558000
17.794164	-0.601778	39.604000
17.815466	-0.572962	39.650000
17.837066	-0.528296	39.695000
17.857840	-0.498099	39.741000
17.879492	-0.472751	39.787000
17.900824	-0.453154	39.833000
17.921158	-0.420121	39.879000
17.941844	-0.391472	39.925000
18.017645	-0.316201	39.970000
18.038252	-0.300303	40.135000
18.110123	-0.315788	40.181000
18.131366	-0.287458	40.337000
18.152388	-0.253760	40.383000
18.172843	-0.227064	40.429000
18.194295	-0.191540	40.475000
18.215329	-0.139125	40.520000
18.235851	-0.086297	40.566000
18.256919	-0.072039	40.612000
18.278003	-0.080194	40.658000
18.299065	-0.096514	40.704000
18.320310	-0.125561	40.750000
18.341598	-0.157463	40.795000
18.362718	-0.160395	40.841000
18.382995	-0.134613	40.886000
18.403644	-0.114306	40.932000
18.424536	-0.087048	40.978000
18.445556	-0.065995	41.024000
18.711457	-0.108820	41.070000
18.732400	-0.170258	41.649000
18.753259	-0.256819	41.695000
18.775170	-0.379891	41.741000
18.796611	-0.524471	41.787000
18.817308	-0.667332	41.833000
18.838184	-0.800472	41.878000
18.858313	-0.923717	41.924000
18.879736	-1.041395	41.970000
18.900739	-1.145910	42.016000
18.922130	-1.233222	42.061000
18.943803	-1.291830	42.107000
18.964729	-1.317560	42.153000
19.034387	-1.320186	42.199000
19.055290	-1.339652	42.354000
19.126225	-1.353976	42.400000
19.147416	-1.263634	42.556000
19.168903	-1.197628	42.602000
19.190380	-1.115060	42.648000
19.210743	-1.039447	42.693000
19.231500	-0.982703	42.739000
19.252766	-0.942800	42.785000
19.273846	-0.917664	42.831000
19.295421	-0.935143	42.877000
19.316656	-0.973915	42.923000
19.336938	-1.011498	42.968000
19.357697	-1.046099	43.014000
19.378070	-1.088843	43.060000
19.399655	-1.137179	43.105000
19.420248	-1.166670	43.151000
19.441844	-1.163897	43.197000
19.462895	-1.138541	43.242000
19.533906	-1.011872	43.288000
19.555170	-1.000444	43.445000
19.626374	-1.007157	43.491000
19.647607	-0.901463	43.647000
19.668900	-0.840401	43.693000
19.690633	-0.782413	43.739000
19.711926	-0.741950	43.785000
19.732122	-0.696773	43.831000
19.753003	-0.672166	43.877000
19.774187	-0.651129	43.922000
19.794961	-0.644854	43.968000
19.816298	-0.648332	44.014000
19.838098	-0.661733	44.060000
19.858785	-0.692655	44.106000
19.879557	-0.728200	44.151000
19.900627	-0.762912	44.197000
19.920977	-0.808742	44.243000
19.941813	-0.848631	44.289000
19.962804	-0.874301	44.334000
20.035172	-0.949615	44.380000
20.055737	-0.987755	44.536000
20.127685	-1.022992	44.582000
20.148017	-1.156138	44.738000
20.168390	-1.184750	44.784000
20.190015	-1.209618	44.829000
20.211156	-1.219546	44.875000
20.231938	-1.222899	44.921000
20.252524	-1.226473	44.966000
20.273632	-1.234944	45.012000
20.294095	-1.259190	45.058000
20.315267	-1.287283	45.104000
20.336834	-1.320237	45.149000
20.358122	-1.355535	45.195000
20.378775	-1.371694	45.241000
20.399364	-1.374805	45.286000
20.420480	-1.365212	45.332000
20.440988	-1.354441	45.377000
20.462501	-1.313614	45.424000
20.538270	-1.050335	45.469000
20.558850	-1.015805	45.635000
20.631359	-0.981568	45.681000
20.652615	-0.983970	45.837000
20.674033	-1.001773	45.883000
20.694643	-1.022810	45.929000
20.715541	-1.052011	45.974000
20.735819	-1.077163	46.020000
20.756080	-1.106625	46.066000
20.777561	-1.129173	46.112000
20.798975	-1.136744	46.158000
20.820433	-1.118871	46.203000
20.841422	-1.061339	46.249000
20.862200	-0.988715	46.295000
20.883384	-0.946343	46.341000
20.904033	-0.940065	46.387000
20.924828	-0.962103	46.432000
20.945983	-0.994544	46.478000
20.967274	-1.027262	46.524000
21.232065	-0.912295	46.570000
21.253575	-0.955026	47.150000
21.275038	-0.980361	47.196000
21.296070	-1.012013	47.241000
21.316596	-1.056866	47.287000
21.336692	-1.109684	47.333000
21.357574	-1.169312	47.379000
21.378327	-1.213353	47.424000
21.399504	-1.241352	47.470000
21.421060	-1.231674	47.516000
21.442067	-1.196059	47.561000
21.462593	-1.136431	47.607000
21.483654	-1.074270	47.653000
21.555477	-1.031582	47.699000
21.576604	-1.097197	47.855000
21.648739	-1.165813	47.901000
21.669286	-1.285115	48.056000
21.690066	-1.279985	48.102000
21.710631	-1.274396	48.148000
21.732018	-1.270690	48.194000
21.752577	-1.258116	48.239000
21.774133	-1.231846	48.285000
21.794918	-1.200726	48.331000
21.815723	-1.160336	48.376000
21.836178	-1.101270	48.422000
21.856949	-1.044010	48.468000
21.878182	-0.985948	48.514000
21.899194	-0.939428	48.559000
21.920243	-0.897406	48.605000
21.941912	-0.866192	48.651000
21.962456	-0.859301	48.696000
21.983459	-0.852880	48.742000
22.054848	-0.814563	48.788000
22.075537	-0.803355	48.944000
22.147602	-0.798557	48.990000
22.168259	-0.662536	49.145000
22.188822	-0.617956	49.191000
22.209327	-0.552535	49.237000
22.230712	-0.497353	49.282000
22.251709	-0.444122	49.328000
22.272789	-0.391472	49.374000
22.294840	-0.335000	49.420000
22.315586	-0.274308	49.466000
22.336585	-0.205087	49.512000
22.357749	-0.142053	49.558000
22.377952	-0.084463	49.603000
22.398361	-0.027840	49.649000
22.419670	0.020125	49.695000
22.441370	0.063311	49.741000
22.462582	0.075422	49.787000
22.482933	0.039681	49.832000
22.554288	-0.110717	49.878000
22.574993	-0.119304	50.035000
22.647440	-0.112409	50.081000
22.668952	-0.058666	50.238000
22.690438	-0.053979	50.283000
22.710934	-0.051998	50.329000
22.731188	-0.051449	50.375000
22.751695	-0.040214	50.420000
22.772553	-0.035949	50.466000
22.793904	0.002024	50.512000
22.815104	0.035815	50.558000
22.836470	0.078790	50.603000
22.857039	0.117555	50.649000
22.877986	0.144582	50.695000
22.898837	0.187255	50.741000
22.919715	0.237156	50.787000
22.940815	0.277892	50.832000
22.961918	0.294752	50.878000
22.983326	0.282739	50.924000
23.058960	0.237096	50.969000
23.079435	0.203801	51.135000
23.151936	0.187336	51.181000
23.173004	0.119167	51.337000
23.193436	0.113538	51.383000
23.213931	0.096682	51.429000
23.234832	0.071838	51.475000
23.255656	0.029851	51.521000
23.277007	-0.016515	51.566000
23.298634	-0.042522	51.612000
23.319203	-0.038797	51.658000
23.339888	-0.014306	51.704000
23.360883	-0.016383	51.749000
23.382028	-0.032487	51.795000
23.403010	-0.063546	51.841000
23.424203	-0.089346	51.887000
23.445759	-0.115089	51.932000
23.466827	-0.141750	51.978000
23.487109	-0.174932	52.024000
23.753554	-0.219867	52.069000
23.774472	-0.279741	52.650000
23.794588	-0.310056	52.696000
23.815652	-0.353590	52.742000
23.836272	-0.421940	52.787000
23.857742	-0.502837	52.833000
23.879111	-0.577778	52.879000
23.900166	-0.623100	52.925000
23.921201	-0.642372	52.971000
23.941958	-0.611793	53.016000
23.962667	-0.596899	53.062000
23.983816	-0.595847	53.108000
24.004523	-0.598624	53.153000
24.076449	-0.591436	53.200000
24.097264	-0.615433	53.355000
24.168030	-0.640848	53.401000
24.188338	-0.703281	53.556000
24.209508	-0.694512	53.602000
24.230628	-0.682913	53.648000
24.251551	-0.682293	53.694000
24.273534	-0.707385	53.739000
24.294343	-0.733230	53.785000
24.315305	-0.747221	53.831000
24.335787	-0.759611	53.877000
24.357082	-0.767056	53.923000
24.378058	-0.770951	53.969000
24.399473	-0.777197	54.015000
24.421279	-0.770688	54.060000
24.442101	-0.786642	54.106000
24.462756	-0.756485	54.152000
24.483797	-0.721976	54.198000
24.503824	-0.659962	54.243000
24.575757	-0.512721	54.289000
24.596898	-0.482156	54.445000
24.668321	-0.456300	54.491000
24.689251	-0.383897	54.646000
24.709925	-0.382410	54.692000
24.730167	-0.394800	54.738000
24.751658	-0.426739	54.784000
24.772724	-0.458225	54.829000
24.793988	-0.489838	54.875000
24.815252	-0.514118	54.921000
24.835231	-0.518241	54.966000
24.856808	-0.489555	55.012000
24.877968	-0.457747	55.058000
24.898485	-0.465543	55.104000
24.920250	-0.512551	55.150000
24.941699	-0.555972	55.195000
24.961628	-0.589033	55.241000
24.982154	-0.606442	55.287000
25.003314	-0.629687	55.333000
25.074715	-0.606685	55.378000
25.095883	-0.584279	55.535000
25.168155	-0.562837	55.581000
25.188927	-0.526763	55.738000
25.210024	-0.520977	55.783000
25.230818	-0.510233	55.829000
25.251640	-0.503962	55.875000
25.272833	-0.503740	55.921000
25.294171	-0.490983	55.966000
25.315522	-0.493554	56.012000
25.336256	-0.504481	56.058000
25.356953	-0.526045	56.104000
25.377458	-0.559339	56.150000
25.398812	-0.583875	56.196000
25.419717	-0.555160	56.241000
25.441143	-0.488584	56.287000
25.462355	-0.418398	56.333000
25.483331	-0.359246	56.378000
25.504387	-0.296887	56.424000
25.580065	-0.100275	56.470000
25.600471	-0.054090	56.635000
25.672484	-0.009064	56.681000
25.693187	0.177195	56.838000
25.714328	0.208748	56.883000
25.735087	0.229076	56.929000
25.756560	0.259958	56.975000
25.777958	0.290981	57.021000
25.798917	0.305796	57.066000
25.819643	0.328950	57.112000
25.840406	0.352996	57.158000
25.861143	0.358757	57.204000
25.882004	0.360602	57.250000
25.902559	0.349190	57.295000
25.924132	0.354402	57.341000
25.945189	0.346427	57.387000
25.966117	0.366676	57.433000
25.987066	0.387936	57.479000
26.007701	0.398374	57.524000
26.273710	0.475588	57.570000
26.294746	0.475402	58.150000
26.315512	0.490318	58.196000
26.336573	0.527520	58.242000
26.357988	0.579946	58.288000
26.378901	0.635654	58.334000
26.400380	0.701203	58.380000
26.421281	0.739647	58.425000
26.441772	0.723610	58.471000
26.462733	0.669164	58.516000
26.483196	0.605463	58.562000
26.503672	0.564097	58.608000
26.526010	0.550566	58.654000
26.596926	0.609774	58.700000
26.617881	0.645063	58.855000
26.689324	0.665127	58.901000
26.710597	0.648510	59.056000
26.730853	0.655577	59.102000
26.752084	0.659065	59.148000
26.773210	0.673179	59.194000
26.793681	0.701658	59.240000
26.814679	0.734700	59.285000
26.835755	0.760817	59.331000
26.856379	0.790603	59.377000
26.878256	0.804636	59.422000
26.899862	0.810487	59.468000
26.920911	0.819213	59.514000
26.941399	0.822251	59.560000
26.961370	0.813612	59.606000
26.982962	0.774411	59.651000
27.003681	0.720718	59.697000
27.024613	0.658994	59.743000
27.096276	0.471386	59.789000
27.117021	0.463185	59.945000
27.188007	0.490065	59.991000
27.208868	0.575747	60.147000
27.230014	0.581446	60.192000
27.251388	0.589079	60.238000
27.272400	0.603731	60.284000
27.293699	0.624422	60.330000
27.315011	0.643472	60.376000
27.335456	0.665849	60.422000
27.356359	0.677232	60.467000
27.377573	0.714181	60.513000
27.398611	0.734710	60.559000
27.420107	0.736719	60.605000
27.440647	0.707741	60.650000
27.460971	0.657828	60.696000
27.481988	0.602126	60.742000
27.503000	0.549803	60.788000
27.524154	0.519026	60.833000
27.596208	0.491351	60.879000
27.617349	0.495786	61.035000
27.689020	0.537213	61.081000
27.709306	0.539467	61.238000
27.730257	0.497152	61.284000
27.751431	0.457132	61.329000
27.772434	0.446553	61.375000
27.793663	0.498195	61.421000
27.814693	0.595449	61.467000
27.835588	0.686793	61.513000
27.856014	0.741373	61.558000
27.877127	0.769707	61.604000
27.897540	0.786644	61.650000
27.918723	0.804686	61.696000
27.940077	0.845897	61.741000
27.961833	0.902471	61.787000
27.982396	0.959064	61.833000
28.002945	0.984383	61.878000
28.024100	0.991227	61.924000
28.101224	0.954619	61.970000
28.121038	0.961322	62.135000
28.192788	0.964966	62.181000
28.213914	1.030071	62.338000
28.234991	1.051433	62.384000
28.256390	1.083744	62.430000
28.278065	1.130522	62.475000
28.298647	1.193169	62.521000
28.319135	1.256744	62.567000
28.339826	1.300519	62.613000
28.361136	1.333161	62.659000
28.382323	1.358127	62.704000
28.404129	1.375803	62.750000
28.425078	1.376418	62.796000
28.445789	1.360768	62.842000
28.466342	1.364160	62.887000
28.486569	1.407936	62.933000
28.507468	1.439885	62.979000
28.528447	1.469661	63.024000
28.793830	1.639853	63.070000
28.815134	1.629240	63.650000
28.836469	1.629180	63.696000
28.858252	1.615158	63.742000
28.878727	1.580464	63.788000
28.899777	1.550233	63.834000
28.920678	1.565519	63.879000
28.941520	1.609736	63.925000
28.961364	1.671064	63.971000
28.982937	1.683912	64.016000
29.004197	1.660041	64.063000
29.025413	1.611751	64.108000
29.046635	1.566931	64.154000
29.117694	1.448845	64.200000
29.138869	1.381006	64.355000
29.210189	1.318866	64.401000
29.231902	1.290621	64.557000
29.252623	1.326468	64.603000
29.273837	1.356841	64.648000
29.294046	1.380490	64.694000
29.314884	1.396726	64.740000
29.336082	1.425370	64.786000
29.357066	1.426499	64.831000
29.378779	1.415437	64.877000
29.399820	1.402115	64.923000
29.419751	1.387098	64.969000
29.440479	1.382281	65.014000
29.462135	1.370667	65.061000
29.482287	1.362884	65.107000
29.503620	1.358298	65.152000
29.525357	1.346423	65.198000
29.546048	1.329678	65.244000
29.617305	1.222081	65.289000
29.638755	1.225252	65.446000
29.709406	1.234899	65.491000
29.731442	1.374119	65.647000
29.752572	1.447770	65.692000
29.773334	1.489868	65.739000
29.793454	1.502387	65.785000
29.814072	1.501180	65.830000
29.835146	1.491165	65.876000
29.856321	1.491104	65.922000
29.877981	1.508519	65.967000
29.898394	1.521996	66.013000
29.919218	1.530360	66.059000
29.940880	1.556882	66.105000
29.961239	1.612431	66.151000
29.981788	1.674809	66.197000
30.003158	1.739696	66.242000
30.024282	1.813768	66.288000
30.045755	1.888234	66.334000
30.117547	2.057791	66.380000
30.137667	2.102476	66.536000
30.209284	2.135985	66.581000
30.230060	2.219303	66.738000
30.251268	2.258835	66.784000
30.272934	2.299631	66.830000
30.293950	2.339821	66.876000
30.314793	2.375171	66.922000
30.335299	2.405336	66.967000
30.356159	2.427597	67.013000
30.377073	2.444683	67.059000
30.398140	2.471133	67.105000
30.419753	2.499724	67.150000
30.441032	2.524640	67.196000
30.461899	2.553108	67.242000
30.482220	2.591194	67.288000
30.503628	2.641033	67.334000
30.524634	2.696013	67.380000
30.545424	2.744340	67.425000
30.620522	2.872330	67.471000
30.640704	2.872875	67.636000
30.712819	2.841105	67.681000
30.734696	2.666586	67.838000
30.755463	2.600840	67.884000
30.776125	2.559241	67.930000
30.797506	2.551222	67.975000
30.817969	2.571848	68.022000
30.839360	2.606460	68.068000
30.860472	2.643622	68.113000
30.881654	2.697424	68.159000
30.903415	2.771613	68.205000
30.924136	2.858878	68.251000
30.945123	2.954862	68.297000
30.966033	3.042202	68.342000
30.986836	3.115863	68.388000
31.008035	3.184581	68.434000
31.029652	3.246284	68.480000
31.050959	3.287323	68.525000
31.314236	3.521932	68.571000
31.336364	3.746613	69.150000
31.356664	3.821789	69.196000
31.377849	3.894005	69.242000
31.398695	3.963506	69.288000
31.419490	4.017045	69.334000
31.440854	4.065201	69.379000
31.461584	4.112709	69.425000
31.482899	4.167542	69.471000
31.504336	4.224092	69.517000
31.525068	4.286337	69.563000
31.545789	4.348163	69.609000
31.566782	4.427207	69.654000
31.637723	4.697618	69.700000
31.658916	4.713611	69.856000
31.730666	4.713077	69.901000
31.750833	4.746656	70.057000
31.771513	4.786228	70.103000
31.792664	4.825357	70.149000
31.814064	4.855770	70.194000
31.834644	4.884474	70.240000
31.856273	4.905866	70.286000
31.877762	4.930028	70.332000
31.898423	4.957035	70.378000
31.919466	4.981460	70.423000
31.940342	5.012252	70.469000
31.961354	5.042629	70.515000
31.982462	5.085480	70.561000
32.004103	5.130380	70.607000
32.025398	5.167821	70.652000
32.045732	5.217151	70.698000
32.066523	5.278543	70.744000
32.137146	5.476843	70.790000
32.158298	5.499300	70.946000
32.230254	5.508007	70.992000
32.251783	5.468843	71.147000
32.272298	5.464274	71.193000
32.292932	5.486953	71.239000
32.313808	5.550734	71.284000
32.335310	5.642560	71.330000
32.355575	5.750419	71.376000
32.377050	5.850353	71.422000
32.397803	5.945155	71.467000
32.418510	6.034140	71.513000
32.439597	6.132663	71.559000
32.460089	6.244367	71.604000
32.481030	6.353025	71.650000
32.502967	6.460425	71.696000
32.524035	6.566788	71.742000
32.544519	6.661768	71.787000
32.566086	6.752213	71.833000
32.636866	7.036349	71.879000
32.657685	7.104513	72.036000
32.730243	7.151563	72.082000
32.751246	7.149670	72.238000
32.771891	7.148656	72.284000
32.793136	7.155193	72.330000
32.813490	7.176670	72.375000
32.835034	7.218926	72.421000
32.856014	7.283874	72.467000
32.877251	7.367072	72.513000
32.898557	7.475637	72.558000
32.919852	7.587100	72.604000
32.940240	7.699052	72.650000
32.960870	7.809749	72.696000
32.981980	7.924453	72.742000
33.002902	8.058954	72.788000
33.024055	8.181629	72.833000
33.045438	8.312024	72.879000
33.066014	8.437246	72.925000
33.141458	8.786127	72.971000
33.162749	8.871798	73.136000
33.234501	8.960653	73.182000
33.255261	9.224532	73.338000
33.276426	9.260685	73.384000
33.296499	9.289153	73.430000
33.317682	9.335995	73.476000
33.339180	9.396002	73.521000
33.360652	9.467085	73.567000
33.381916	9.535797	73.613000
33.402699	9.607627	73.659000
33.423333	9.698270	73.705000
33.444367	9.798133	73.751000
33.464797	9.875583	73.796000
33.485827	9.948230	73.842000
33.507847	10.029336	73.888000
33.528470	10.116558	73.934000
33.549861	10.189820	73.980000
33.570617	10.263722	74.025000
33.836115	10.757585	74.071000
33.857514	11.267498	74.651000
33.877741	11.336911	74.696000
33.898985	11.414635	74.742000
33.919585	11.516731	74.788000
33.940453	11.638413	74.834000
33.962428	11.767522	74.880000
33.983949	11.874576	74.926000
34.004279	11.975025	74.972000
34.025221	12.098399	75.017000
34.045924	12.224246	75.063000
34.066669	12.348455	75.109000
34.087411	12.478740	75.155000
34.158974	12.845286	75.200000
34.180031	12.960295	75.356000
34.250795	13.079787	75.402000
34.272075	13.475101	75.557000
34.292732	13.545675	75.603000
34.314353	13.608858	75.649000
34.335609	13.666982	75.695000
34.356189	13.735958	75.740000
34.377115	13.793265	75.786000
34.397595	13.855313	75.832000
34.418783	13.937644	75.878000
34.439755	14.039301	75.924000
34.460577	14.136813	75.969000
34.482574	14.235671	76.015000
34.503155	14.333133	76.061000
34.524184	14.439680	76.107000
34.545268	14.556264	76.153000
34.566036	14.677168	76.199000
34.586678	14.800406	76.244000
34.658649	15.225805	76.290000
34.680639	15.363543	76.446000
34.750996	15.505051	76.492000
34.771584	15.901575	76.647000
34.792494	16.012308	76.693000
34.813101	16.131840	76.739000
34.834619	16.257232	76.785000
34.856229	16.379149	76.831000
34.877147	16.505460	76.877000
34.898196	16.641499	76.922000
34.919002	16.764240	76.968000
34.939567	16.863584	77.014000
34.960547	16.959993	77.060000
34.981569	17.087141	77.105000
35.003332	17.231270	77.151000
35.024504	17.365091	77.197000
35.044907	17.472945	77.242000
35.065787	17.564911	77.288000
35.086698	17.657072	77.334000
35.158023	18.119519	77.380000
35.178696	18.294479	77.536000
35.251312	18.490225	77.582000
35.272272	19.177796	77.738000
35.292484	19.349857	77.784000
35.313452	19.522860	77.830000
35.334447	19.698658	77.876000
35.355722	19.863530	77.921000
35.377152	20.022792	77.967000
35.397889	20.161508	78.013000
35.418685	20.279134	78.059000
35.439680	20.394292	78.104000
35.460690	20.522159	78.150000
35.481416	20.671262	78.196000
35.502592	20.814717	78.242000
35.523226	20.964650	78.288000
35.545147	21.130472	78.334000
35.565903	21.318145	78.379000
35.586464	21.493068	78.425000
35.663441	22.056514	78.471000
35.684086	22.274289	78.636000
35.755151	22.505812	78.682000
35.775869	23.226531	78.838000
35.797149	23.444084	78.884000
35.818290	23.669925	78.930000
35.839926	23.885339	78.976000
35.860975	24.067284	79.022000
35.881401	24.221136	79.068000
35.902277	24.338850	79.113000
35.923111	24.454804	79.159000
35.944091	24.588485	79.205000
35.964771	24.732442	79.250000
35.986204	24.889528	79.297000
36.007353	25.046503	79.342000
36.028048	25.197823	79.388000
36.048951	25.347487	79.434000
36.069708	25.512562	79.480000
36.090925	25.677545	79.526000
36.356681	27.008888	79.572000
36.377845	27.979814	80.151000
36.398410	28.177532	80.197000
36.419362	28.361422	80.243000
36.441345	28.515308	80.288000
36.462263	28.653566	80.334000
36.483174	28.784474	80.380000
36.503685	28.916934	80.426000
36.524395	29.050212	80.472000
36.545725	29.207806	80.518000
36.566846	29.370514	80.564000
36.588076	29.547532	80.610000
36.609624	29.747040	80.655000
36.680834	30.480495	80.701000
36.701526	30.711871	80.857000
36.772091	30.948524	80.903000
36.793097	31.785498	81.058000
36.814957	32.010924	81.104000
36.836470	32.221776	81.150000
36.857047	32.430867	81.196000
36.878276	32.631030	81.242000
36.899160	32.811270	81.287000
36.920078	32.965222	81.333000
36.940232	33.153567	81.379000
36.961569	33.386207	81.425000
36.983290	33.654748	81.471000
37.004312	33.918901	81.516000
37.025203	34.185430	81.562000
37.045391	34.441315	81.608000
37.065975	34.675152	81.654000
37.087116	34.889335	81.700000
37.108572	35.110799	81.746000
37.180067	35.862102	81.792000
37.201300	36.122909	81.947000
37.271792	36.362534	81.993000
37.292334	37.078697	82.148000
37.313671	37.288951	82.194000
37.335169	37.490383	82.240000
37.356410	37.699705	82.286000
37.377363	37.917693	82.332000
37.397935	38.134691	82.378000
37.418738	38.346455	82.424000
37.439506	38.543078	82.469000
37.460252	38.745796	82.515000
37.482192	38.943211	82.561000
37.503271	39.156713	82.607000
37.523821	39.388356	82.652000
37.544816	39.626985	82.698000
37.565519	39.862297	82.744000
37.586126	40.074360	82.790000
37.607359	40.272914	82.836000
37.679407	41.046207	82.881000
37.700813	41.258237	83.038000
37.771343	41.477387	83.084000
37.792035	42.264742	83.240000
37.812846	42.508823	83.286000
37.834329	42.764360	83.332000
37.855539	43.008347	83.377000
37.877014	43.220619	83.423000
37.898447	43.439586	83.469000
37.919008	43.675484	83.515000
37.939834	43.917544	83.561000
37.960625	44.167647	83.607000
37.981655	44.436263	83.652000
38.002734	44.718479	83.698000
38.024947	44.973335	83.744000
38.045785	45.250535	83.790000
38.066446	45.537891	83.836000
38.087326	45.832653	83.881000
38.107445	46.143427	83.927000
38.213446	46.820479	83.973000
38.285151	47.508882	84.204000
38.306258	49.043478	84.360000
