Sample	2mm tape 
date	07/01/2025
	
Temperature (K)	77.00
Angle (deg.)	0.000000
field / T	0.100000
	
		
Approx. trace time (s)	120.0	
		
Current / A	V1  -sample/ uV	time/s
-0.022398	-2.156572	0.000000
-0.022845	-2.062699	0.046000
-0.022917	-2.053404	0.202000
-0.022140	-2.056359	0.248000
-0.022702	-2.156865	0.404000
-0.022971	-2.196103	0.450000
-0.022320	-2.235710	0.495000
-0.021925	-2.275916	0.541000
-0.022559	-2.311339	0.587000
-0.022606	-2.347178	0.633000
-0.021943	-2.385594	0.679000
-0.022368	-2.436619	0.724000
-0.007747	-2.496277	0.770000
0.010142	-2.543706	0.815000
0.034604	-2.588373	0.862000
0.055012	-2.621382	0.907000
0.077338	-2.638524	0.953000
0.098459	-2.648706	0.999000
0.120705	-2.648342	1.045000
0.140314	-2.638106	1.091000
0.401676	-2.314534	1.137000
0.422064	-2.038868	1.711000
0.443909	-1.992674	1.756000
0.464462	-1.945712	1.802000
0.485453	-1.915937	1.848000
0.506478	-1.908687	1.894000
0.527514	-1.919454	1.940000
0.549115	-1.935616	1.985000
0.569618	-1.950598	2.031000
0.590494	-1.965847	2.077000
0.611005	-1.979106	2.123000
0.632581	-1.989933	2.168000
0.654078	-1.987717	2.214000
0.725237	-1.933628	2.260000
0.747020	-1.913038	2.416000
0.816553	-1.880809	2.462000
0.837846	-1.803403	2.618000
0.858783	-1.786789	2.664000
0.881173	-1.762091	2.710000
0.902384	-1.732388	2.756000
0.921988	-1.716738	2.801000
0.944054	-1.740211	2.847000
0.964315	-1.803352	2.893000
0.984686	-1.879175	2.938000
1.006313	-1.953041	2.984000
1.027039	-2.017013	3.030000
1.048233	-2.073590	3.076000
1.068528	-2.127113	3.121000
1.090280	-2.178367	3.167000
1.109888	-2.226250	3.213000
1.131147	-2.276026	3.258000
1.152334	-2.326547	3.304000
1.224236	-2.530858	3.350000
1.245620	-2.578918	3.507000
1.316526	-2.613317	3.552000
1.337329	-2.638605	3.708000
1.358597	-2.625866	3.754000
1.379799	-2.621543	3.800000
1.400794	-2.638291	3.846000
1.422137	-2.678769	3.892000
1.442926	-2.735942	3.938000
1.462862	-2.800359	3.983000
1.484277	-2.862964	4.029000
1.505031	-2.921646	4.075000
1.526432	-2.985184	4.121000
1.547420	-3.041054	4.166000
1.568411	-3.097241	4.212000
1.590224	-3.148356	4.258000
1.610811	-3.192244	4.304000
1.630137	-3.229673	4.349000
1.652090	-3.262986	4.395000
1.724226	-3.334279	4.441000
1.745138	-3.343371	4.597000
1.816325	-3.353169	4.643000
1.837862	-3.400023	4.799000
1.858444	-3.410622	4.844000
1.879435	-3.420653	4.890000
1.900664	-3.424646	4.936000
1.922384	-3.424897	4.982000
1.943328	-3.414489	5.028000
1.964288	-3.393928	5.074000
1.985224	-3.364198	5.119000
2.004933	-3.334736	5.165000
2.026356	-3.314550	5.211000
2.047757	-3.301128	5.257000
2.069668	-3.300306	5.302000
2.089969	-3.301512	5.348000
2.110264	-3.306883	5.394000
2.131550	-3.315187	5.440000
2.152881	-3.331819	5.486000
2.228570	-3.412609	5.531000
2.249577	-3.431702	5.697000
2.320246	-3.444080	5.742000
2.341981	-3.494649	5.899000
2.363119	-3.510439	5.944000
2.384521	-3.527821	5.990000
2.405343	-3.547489	6.036000
2.426650	-3.561208	6.082000
2.446895	-3.576079	6.128000
2.467573	-3.586340	6.174000
2.488509	-3.588975	6.220000
2.510262	-3.584422	6.266000
2.531663	-3.566024	6.311000
2.552591	-3.541073	6.357000
2.573141	-3.511664	6.403000
2.594666	-3.477723	6.449000
2.615087	-3.448605	6.494000
2.635310	-3.425588	6.540000
2.656585	-3.407322	6.586000
2.922578	-3.432517	6.632000
2.943957	-3.421716	7.211000
2.964979	-3.415703	7.257000
2.986776	-3.401378	7.303000
3.007766	-3.382700	7.349000
3.027323	-3.359528	7.394000
3.048633	-3.327801	7.440000
3.069609	-3.289722	7.486000
3.090273	-3.253500	7.532000
3.110789	-3.217366	7.578000
3.132679	-3.182239	7.624000
3.153656	-3.142475	7.669000
3.174293	-3.105178	7.715000
3.246721	-2.996600	7.761000
3.267190	-2.965642	7.918000
3.338802	-2.933308	7.963000
3.360585	-2.780305	8.119000
3.380468	-2.718230	8.165000
3.401763	-2.653271	8.211000
3.422879	-2.598992	8.257000
3.443564	-2.553454	8.303000
3.464878	-2.513424	8.349000
3.486131	-2.486760	8.395000
3.506846	-2.476626	8.440000
3.527815	-2.482568	8.486000
3.549240	-2.497572	8.532000
3.570324	-2.514957	8.578000
3.590992	-2.537461	8.623000
3.611228	-2.553902	8.669000
3.632264	-2.571759	8.715000
3.654166	-2.581920	8.761000
3.675508	-2.582923	8.806000
3.745891	-2.600982	8.852000
3.766917	-2.620725	9.008000
3.838160	-2.639461	9.054000
3.859035	-2.685148	9.210000
3.880710	-2.699251	9.255000
3.902151	-2.721057	9.301000
3.923323	-2.745864	9.347000
3.944546	-2.777619	9.393000
3.964639	-2.813851	9.439000
3.985122	-2.839421	9.485000
4.006375	-2.852742	9.531000
4.027424	-2.859636	9.576000
4.049434	-2.852091	9.622000
4.070553	-2.800632	9.668000
4.090395	-2.718229	9.714000
4.111088	-2.620857	9.759000
4.132118	-2.522344	9.805000
4.152812	-2.441136	9.851000
4.173883	-2.390388	9.896000
4.246264	-2.390862	9.942000
4.267954	-2.401376	10.098000
4.338648	-2.417130	10.144000
4.360017	-2.553584	10.299000
4.380664	-2.599515	10.345000
4.402374	-2.647196	10.391000
4.423253	-2.686017	10.437000
4.443932	-2.720420	10.483000
4.465017	-2.747212	10.529000
4.486056	-2.770451	10.575000
4.506484	-2.795053	10.621000
4.528012	-2.818787	10.667000
4.549215	-2.841521	10.712000
4.570012	-2.861329	10.758000
4.591394	-2.875804	10.804000
4.611962	-2.884118	10.849000
4.632567	-2.885273	10.895000
4.653746	-2.881422	10.941000
4.674399	-2.880937	10.987000
4.750620	-2.854862	11.032000
4.771257	-2.825077	11.197000
4.843179	-2.779442	11.243000
4.864021	-2.482285	11.399000
4.885206	-2.400291	11.445000
4.905537	-2.348781	11.490000
4.926869	-2.316164	11.536000
4.947708	-2.294348	11.582000
4.968727	-2.280649	11.628000
4.990096	-2.268657	11.674000
5.011463	-2.257718	11.720000
5.032608	-2.248896	11.766000
5.053858	-2.234381	11.812000
5.074542	-2.217332	11.858000
5.094277	-2.199041	11.904000
5.115250	-2.188341	11.949000
5.136101	-2.187660	11.995000
5.157913	-2.193038	12.041000
5.178994	-2.208150	12.087000
5.444114	-2.117444	12.133000
5.465659	-2.125565	12.711000
5.486673	-2.105913	12.757000
5.507611	-2.074834	12.803000
5.528302	-2.032436	12.848000
5.549387	-1.983466	12.894000
5.570149	-1.938179	12.940000
5.591387	-1.895346	12.986000
5.613032	-1.863885	13.032000
5.634161	-1.832111	13.077000
5.654832	-1.792005	13.123000
5.675826	-1.751133	13.169000
5.697006	-1.720402	13.215000
5.768275	-1.684319	13.261000
5.789521	-1.677061	13.417000
5.860577	-1.680020	13.462000
5.881772	-1.858525	13.619000
5.902742	-1.920963	13.664000
5.923514	-1.978692	13.710000
5.944667	-2.035909	13.756000
5.965303	-2.088825	13.802000
5.987135	-2.132761	13.848000
6.008379	-2.169974	13.894000
6.029380	-2.195528	13.940000
6.050375	-2.213657	13.985000
6.070885	-2.220734	14.031000
6.091784	-2.223875	14.077000
6.112719	-2.221067	14.123000
6.134045	-2.211844	14.169000
6.155128	-2.191773	14.215000
6.175883	-2.159304	14.260000
6.196710	-2.114582	14.306000
6.268694	-1.938261	14.352000
6.289494	-1.910705	14.508000
6.361014	-1.901106	14.554000
6.382567	-1.980974	14.709000
6.402946	-2.015453	14.755000
6.423653	-2.049191	14.801000
6.444384	-2.097714	14.847000
6.465388	-2.155680	14.893000
6.486269	-2.203911	14.938000
6.507767	-2.217837	14.984000
6.529290	-2.190362	15.030000
6.550096	-2.163518	15.076000
6.570846	-2.143411	15.122000
6.591661	-2.123317	15.167000
6.612385	-2.092027	15.213000
6.633804	-2.063651	15.259000
6.655088	-2.034907	15.305000
6.676209	-1.993017	15.350000
6.697142	-1.946025	15.396000
6.768402	-1.840934	15.442000
6.788806	-1.829966	15.598000
6.860456	-1.830653	15.644000
6.882219	-1.888664	15.800000
6.902912	-1.910827	15.846000
6.923691	-1.933072	15.892000
6.944871	-1.955120	15.937000
6.965825	-1.975538	15.983000
6.987024	-1.994738	16.029000
7.008049	-2.010951	16.075000
7.029042	-2.031303	16.121000
7.051036	-2.052890	16.167000
7.071541	-2.077547	16.212000
7.091741	-2.104567	16.258000
7.112329	-2.132214	16.304000
7.133172	-2.162656	16.350000
7.154320	-2.200257	16.395000
7.175439	-2.243080	16.441000
7.196822	-2.293375	16.487000
7.271207	-2.489300	16.533000
7.292665	-2.535544	16.697000
7.364381	-2.577364	16.743000
7.385180	-2.677728	16.899000
7.406075	-2.700922	16.945000
7.426495	-2.723388	16.990000
7.447931	-2.749039	17.036000
7.469072	-2.772273	17.082000
7.490256	-2.792207	17.128000
7.511609	-2.808944	17.173000
7.532722	-2.827680	17.219000
7.553275	-2.841692	17.265000
7.573959	-2.853927	17.311000
7.594783	-2.863730	17.357000
7.615509	-2.873779	17.402000
7.636950	-2.880438	17.448000
7.658074	-2.885284	17.494000
7.679426	-2.887302	17.540000
7.700235	-2.884839	17.585000
7.965158	-2.777049	17.631000
7.986476	-2.630614	18.211000
8.007261	-2.587731	18.257000
8.028270	-2.537783	18.303000
8.049501	-2.485636	18.349000
8.070121	-2.444330	18.394000
8.091725	-2.411472	18.440000
8.113200	-2.397585	18.486000
8.133817	-2.408806	18.532000
8.154429	-2.446077	18.577000
8.175139	-2.492134	18.623000
8.195185	-2.536729	18.669000
8.216440	-2.575261	18.714000
8.288621	-2.661027	18.760000
8.309058	-2.680666	18.916000
8.380637	-2.696959	18.961000
8.401184	-2.729767	19.118000
8.422301	-2.737107	19.163000
8.444030	-2.746727	19.209000
8.465507	-2.758862	19.255000
8.486379	-2.770400	19.301000
8.506918	-2.778623	19.346000
8.527816	-2.780294	19.393000
8.548174	-2.768827	19.438000
8.569100	-2.732014	19.484000
8.590795	-2.659913	19.530000
8.612436	-2.568648	19.576000
8.633239	-2.489311	19.622000
8.653720	-2.446804	19.667000
8.674367	-2.447647	19.713000
8.695498	-2.477486	19.759000
8.716222	-2.514804	19.805000
8.787476	-2.393275	19.851000
8.809287	-2.301141	20.006000
8.880647	-2.215937	20.052000
8.901318	-1.996777	20.207000
8.922360	-1.985707	20.254000
8.943423	-1.993440	20.300000
8.964333	-2.008416	20.345000
8.986254	-2.016200	20.391000
9.007086	-2.022347	20.437000
9.027406	-2.018990	20.483000
9.048479	-2.011122	20.529000
9.069561	-2.007675	20.575000
9.089575	-2.016608	20.620000
9.110500	-2.043197	20.666000
9.131845	-2.077455	20.712000
9.152892	-2.119833	20.758000
9.173450	-2.161400	20.803000
9.194030	-2.200549	20.849000
9.215317	-2.231949	20.895000
9.286903	-2.241894	20.941000
9.308754	-2.214783	21.097000
9.380379	-2.180836	21.143000
9.401368	-2.019844	21.299000
9.422314	-1.969000	21.345000
9.442990	-1.914679	21.391000
9.463959	-1.857985	21.436000
9.484841	-1.800284	21.482000
9.506410	-1.745144	21.528000
9.527389	-1.689516	21.574000
9.548265	-1.639097	21.619000
9.569163	-1.593212	21.666000
9.589930	-1.551029	21.711000
9.610243	-1.503401	21.757000
9.631470	-1.443748	21.803000
9.652840	-1.381649	21.849000
9.674182	-1.320321	21.895000
9.695281	-1.265806	21.940000
9.715541	-1.212404	21.986000
9.792233	-1.174370	22.032000
9.894794	-1.394424	22.197000
9.915585	-1.459684	22.420000
9.936029	-1.572158	22.466000
9.956574	-1.693130	22.512000
9.977705	-1.811189	22.558000
9.998335	-1.920741	22.604000
10.019681	-2.006185	22.650000
10.041231	-2.054527	22.695000
10.061803	-2.063661	22.741000
10.082657	-2.050335	22.787000
10.103839	-2.026625	22.833000
10.124805	-1.998236	22.879000
10.145092	-1.978701	22.925000
10.165989	-1.951541	22.971000
10.187133	-1.915653	23.016000
10.208323	-1.878628	23.062000
10.229315	-1.844856	23.108000
10.484796	-1.675474	23.154000
10.506685	-1.573344	23.711000
10.527200	-1.573748	23.757000
10.547411	-1.567838	23.803000
10.569490	-1.555204	23.849000
10.590878	-1.541358	23.895000
10.611896	-1.526584	23.941000
10.632648	-1.509766	23.986000
10.653001	-1.499559	24.032000
10.673895	-1.495971	24.078000
10.694871	-1.491266	24.124000
10.715982	-1.488081	24.169000
10.737614	-1.477405	24.215000
10.808363	-1.357634	24.261000
10.828933	-1.300105	24.417000
10.900372	-1.234576	24.463000
10.921564	-1.016854	24.619000
10.943178	-0.995817	24.665000
10.964272	-0.994115	24.711000
10.985402	-1.003240	24.756000
11.005334	-1.017444	24.802000
11.026136	-1.036025	24.848000
11.047337	-1.054367	24.894000
11.068069	-1.068133	24.939000
11.089542	-1.070232	24.985000
11.110935	-1.067627	25.031000
11.131537	-1.058199	25.077000
11.151957	-1.045484	25.123000
11.172965	-1.036267	25.168000
11.193577	-1.033077	25.214000
11.214963	-1.043863	25.260000
11.235993	-1.064952	25.306000
11.307803	-1.114586	25.351000
11.328882	-1.097050	25.507000
11.400244	-1.068244	25.553000
11.420986	-0.975329	25.709000
11.442057	-0.958692	25.755000
11.462867	-0.948345	25.801000
11.483839	-0.938268	25.846000
11.505258	-0.932206	25.892000
11.525571	-0.927306	25.938000
11.546756	-0.922821	25.984000
11.568010	-0.925462	26.030000
11.588012	-0.933874	26.075000
11.610039	-0.935940	26.121000
11.631610	-0.927831	26.167000
11.652265	-0.907120	26.213000
11.673110	-0.893980	26.259000
11.693979	-0.890336	26.304000
11.714692	-0.893522	26.350000
11.735701	-0.912271	26.396000
11.807497	-1.076955	26.441000
11.828302	-1.146875	26.597000
11.899487	-1.209355	26.643000
11.919955	-1.307998	26.799000
11.940536	-1.318375	26.845000
11.961852	-1.321536	26.891000
11.983101	-1.310054	26.937000
12.004297	-1.295060	26.983000
12.025986	-1.289333	27.028000
12.046858	-1.282146	27.074000
12.066989	-1.262152	27.119000
12.088121	-1.223720	27.166000
12.109143	-1.177001	27.211000
12.130319	-1.129642	27.257000
12.151761	-1.078354	27.303000
12.172843	-1.032467	27.349000
12.193301	-0.999945	27.395000
12.213869	-0.984177	27.440000
12.235143	-0.987922	27.486000
12.311537	-1.114686	27.532000
12.332484	-1.140136	27.698000
12.404405	-1.142234	27.743000
12.424592	-1.127461	27.900000
12.446457	-1.145153	27.945000
12.467995	-1.171342	27.991000
12.488496	-1.201603	28.037000
12.509342	-1.235544	28.083000
12.529827	-1.249273	28.129000
12.550666	-1.230706	28.174000
12.571559	-1.191065	28.220000
12.592968	-1.153739	28.266000
12.614340	-1.123661	28.312000
12.634968	-1.096227	28.357000
12.655359	-1.064251	28.403000
12.676719	-1.027621	28.449000
12.697548	-0.988629	28.495000
12.718788	-0.956016	28.541000
12.739839	-0.932315	28.586000
13.004793	-0.915563	28.632000
13.025907	-1.146763	29.212000
13.047258	-1.159680	29.258000
13.069338	-1.147809	29.304000
13.090307	-1.127911	29.350000
13.110632	-1.131853	29.395000
13.131817	-1.146663	29.441000
13.152973	-1.163833	29.487000
13.173718	-1.171140	29.533000
13.194481	-1.165359	29.579000
13.216407	-1.152911	29.624000
13.236655	-1.133059	29.670000
13.257743	-1.105333	29.716000
13.329256	-0.997674	29.762000
13.349438	-0.990325	29.918000
13.421580	-0.981169	29.963000
13.443087	-0.873123	30.119000
13.463581	-0.837157	30.165000
13.484101	-0.781819	30.211000
13.504837	-0.714226	30.257000
13.525991	-0.661822	30.302000
13.546991	-0.625752	30.348000
13.568250	-0.614415	30.394000
13.589754	-0.612966	30.440000
13.610413	-0.613758	30.485000
13.631205	-0.628569	30.531000
13.651594	-0.647669	30.577000
13.672935	-0.659692	30.623000
13.693668	-0.666243	30.668000
13.714875	-0.655780	30.714000
13.736328	-0.626086	30.760000
13.756815	-0.592181	30.806000
13.827646	-0.471070	30.851000
13.848871	-0.426403	31.008000
13.920198	-0.399656	31.053000
13.941367	-0.490385	31.209000
13.962589	-0.516706	31.255000
13.983565	-0.517789	31.301000
14.004768	-0.507966	31.347000
14.025480	-0.506499	31.393000
14.046521	-0.512679	31.438000
14.067582	-0.507148	31.484000
14.089295	-0.484126	31.530000
14.110814	-0.454640	31.576000
14.131205	-0.411390	31.622000
14.152060	-0.360064	31.667000
14.172289	-0.329652	31.713000
14.193322	-0.311410	31.759000
14.214250	-0.308922	31.804000
14.235719	-0.308831	31.850000
14.257831	-0.306592	31.896000
14.328230	-0.250645	31.942000
14.349190	-0.219316	32.098000
14.419973	-0.203400	32.144000
14.441130	-0.171313	32.300000
14.462616	-0.166618	32.345000
14.484519	-0.158875	32.391000
14.505590	-0.137747	32.437000
14.525454	-0.121504	32.483000
14.546303	-0.116729	32.529000
14.567388	-0.128439	32.574000
14.588209	-0.146443	32.619000
14.609769	-0.168728	32.666000
14.630412	-0.189479	32.711000
14.651168	-0.205227	32.757000
14.672352	-0.220687	32.803000
14.692695	-0.227346	32.849000
14.713988	-0.215141	32.895000
14.734881	-0.186975	32.940000
14.755846	-0.161914	32.986000
14.832234	-0.209891	33.032000
14.853209	-0.224559	33.198000
14.924849	-0.235275	33.244000
14.946217	-0.241155	33.400000
14.967085	-0.253067	33.445000
14.987077	-0.265812	33.491000
15.007635	-0.277670	33.537000
15.029074	-0.274368	33.583000
15.049800	-0.261462	33.629000
15.071803	-0.250146	33.675000
15.093395	-0.248555	33.720000
15.113982	-0.255359	33.766000
15.134193	-0.272359	33.812000
15.155003	-0.305377	33.858000
15.176121	-0.356291	33.903000
15.196776	-0.411076	33.949000
15.217915	-0.450112	33.995000
15.239101	-0.464619	34.041000
15.260022	-0.469225	34.086000
15.525596	-0.349222	34.132000
15.547277	-0.299530	34.712000
15.567969	-0.241075	34.758000
15.588228	-0.178743	34.804000
15.609304	-0.118959	34.849000
15.630495	-0.060164	34.895000
15.650965	-0.006388	34.941000
15.672326	0.062776	34.987000
15.693317	0.146358	35.033000
15.714067	0.203891	35.079000
15.734936	0.221765	35.124000
15.756002	0.201478	35.170000
15.777408	0.144884	35.216000
15.848475	-0.157901	35.262000
15.870063	-0.263460	35.418000
15.942010	-0.380120	35.464000
15.962754	-0.671291	35.619000
15.983667	-0.748998	35.665000
16.004777	-0.809490	35.711000
16.025950	-0.854801	35.757000
16.046554	-0.884126	35.802000
16.068402	-0.894715	35.849000
16.089282	-0.881535	35.894000
16.109790	-0.879196	35.940000
16.130071	-0.895577	35.986000
16.150296	-0.928984	36.032000
16.171107	-0.964996	36.077000
16.192918	-1.004871	36.123000
16.214224	-1.052339	36.169000
16.235715	-1.074306	36.215000
16.256745	-1.079308	36.260000
16.276837	-1.081181	36.306000
16.348341	-1.027702	36.352000
16.369407	-1.011449	36.508000
16.441430	-1.004760	36.554000
16.462415	-0.868102	36.710000
16.483349	-0.749063	36.755000
16.504000	-0.639103	36.801000
16.524571	-0.565358	36.847000
16.545637	-0.521762	36.892000
16.566970	-0.486192	36.938000
16.588334	-0.450023	36.984000
16.609333	-0.403818	37.030000
16.629738	-0.377101	37.076000
16.650243	-0.361642	37.121000
16.671350	-0.339556	37.167000
16.692247	-0.349232	37.213000
16.713710	-0.358417	37.259000
16.735268	-0.328624	37.305000
16.755547	-0.304991	37.350000
16.776246	-0.293539	37.396000
16.848399	-0.223454	37.442000
16.869170	-0.222813	37.598000
16.941335	-0.267321	37.644000
16.963186	-0.407503	37.800000
16.983621	-0.457991	37.846000
17.004176	-0.504760	37.892000
17.025117	-0.520924	37.937000
17.045926	-0.532206	37.983000
17.066546	-0.545506	38.029000
17.088052	-0.561556	38.075000
17.109109	-0.549614	38.120000
17.130121	-0.508799	38.166000
17.150459	-0.474266	38.212000
17.171157	-0.454821	38.258000
17.192002	-0.448309	38.304000
17.212874	-0.457512	38.350000
17.234222	-0.480637	38.395000
17.255692	-0.494230	38.441000
17.276687	-0.489383	38.487000
17.351754	-0.318639	38.533000
17.373362	-0.277856	38.698000
17.445045	-0.259453	38.744000
17.465289	-0.215798	38.900000
17.486428	-0.190554	38.946000
17.507027	-0.172377	38.991000
17.528314	-0.170005	39.037000
17.549576	-0.182649	39.083000
17.570654	-0.192159	39.128000
17.591223	-0.179979	39.174000
17.612114	-0.154065	39.219000
17.632698	-0.112685	39.265000
17.654286	-0.058555	39.311000
17.675105	-0.000345	39.357000
17.695983	0.046762	39.403000
17.717961	0.080703	39.448000
17.738566	0.098900	39.494000
17.759269	0.105840	39.540000
17.780065	0.102085	39.586000
18.046784	0.067887	39.632000
18.067601	-0.143339	40.212000
18.088734	-0.198392	40.258000
18.109312	-0.228960	40.304000
18.130622	-0.246264	40.350000
18.151552	-0.252814	40.395000
18.172616	-0.258519	40.441000
18.194015	-0.271679	40.487000
18.214432	-0.270108	40.533000
18.235655	-0.250125	40.579000
18.256662	-0.220637	40.624000
18.277207	-0.202193	40.670000
18.298354	-0.201628	40.716000
18.370586	-0.241529	40.762000
18.391180	-0.254860	40.918000
18.462346	-0.272167	40.964000
18.483224	-0.271487	41.120000
18.503933	-0.282732	41.166000
18.524983	-0.301255	41.211000
18.546722	-0.302998	41.257000
18.567650	-0.322902	41.302000
18.588232	-0.400153	41.348000
18.609355	-0.489714	41.394000
18.629446	-0.548650	41.440000
18.650921	-0.577967	41.486000
18.672354	-0.599594	41.531000
18.693735	-0.618340	41.577000
18.714258	-0.633181	41.623000
18.734544	-0.648052	41.669000
18.755975	-0.676591	41.714000
18.776805	-0.711216	41.760000
18.797902	-0.737953	41.806000
18.869921	-0.749798	41.852000
18.891359	-0.740656	42.008000
18.962007	-0.703590	42.054000
18.982562	-0.524579	42.210000
19.003421	-0.484805	42.256000
19.024619	-0.449770	42.302000
19.045847	-0.399505	42.347000
19.067272	-0.340629	42.393000
19.087971	-0.277735	42.439000
19.108498	-0.216357	42.485000
19.129833	-0.170419	42.531000
19.150228	-0.139866	42.576000
19.170761	-0.116799	42.622000
19.192301	-0.109571	42.667000
19.213650	-0.117379	42.714000
19.234539	-0.149809	42.759000
19.255350	-0.178752	42.805000
19.275926	-0.207538	42.851000
19.297839	-0.231929	42.897000
19.369257	-0.311119	42.943000
19.390411	-0.339766	43.098000
19.461816	-0.371858	43.144000
19.482233	-0.422619	43.300000
19.502966	-0.428954	43.346000
19.524201	-0.427921	43.392000
19.545327	-0.423213	43.438000
19.565855	-0.406490	43.484000
19.587740	-0.383230	43.529000
19.608301	-0.365675	43.575000
19.629048	-0.361869	43.621000
19.650189	-0.369320	43.666000
19.671123	-0.384238	43.712000
19.692231	-0.409021	43.758000
19.713549	-0.446589	43.804000
19.735022	-0.488712	43.850000
19.755984	-0.518541	43.895000
19.776722	-0.539393	43.942000
19.797408	-0.548580	43.988000
19.874014	-0.487538	44.033000
19.895368	-0.458253	44.198000
19.965758	-0.422639	44.244000
19.986786	-0.339868	44.400000
20.007741	-0.303787	44.446000
20.029078	-0.261623	44.492000
20.049798	-0.233755	44.538000
20.071037	-0.205914	44.583000
20.092015	-0.162126	44.629000
20.112679	-0.115744	44.675000
20.133717	-0.094343	44.721000
20.154593	-0.098865	44.767000
20.175707	-0.123330	44.812000
20.197295	-0.141759	44.858000
20.217927	-0.152374	44.904000
20.238995	-0.167825	44.950000
20.259568	-0.196364	44.995000
20.280123	-0.236371	45.041000
20.301410	-0.280249	45.087000
20.567258	-0.382288	45.133000
20.588012	-0.384697	45.712000
20.608969	-0.402322	45.758000
20.630392	-0.416877	45.804000
20.652461	-0.425744	45.850000
20.673272	-0.432568	45.896000
20.693648	-0.450567	45.941000
20.714219	-0.485507	45.987000
20.734455	-0.526234	46.033000
20.755623	-0.543487	46.079000
20.777081	-0.549277	46.125000
20.798743	-0.562315	46.171000
20.820105	-0.576946	46.216000
20.890992	-0.593846	46.262000
20.912183	-0.606843	46.418000
20.982683	-0.620689	46.464000
21.004438	-0.582450	46.620000
21.025820	-0.576377	46.666000
21.047197	-0.574655	46.712000
21.067823	-0.580444	46.758000
21.088236	-0.594028	46.804000
21.109300	-0.602856	46.849000
21.129902	-0.645745	46.895000
21.151262	-0.663190	46.941000
21.172595	-0.635919	46.986000
21.193378	-0.580768	47.032000
21.214387	-0.508133	47.078000
21.234692	-0.433541	47.124000
21.255655	-0.387917	47.169000
21.276644	-0.374908	47.215000
21.297806	-0.385649	47.261000
21.319243	-0.412696	47.307000
21.390321	-0.486801	47.353000
21.411126	-0.475828	47.508000
21.482056	-0.468651	47.554000
21.503120	-0.660100	47.710000
21.525114	-0.718056	47.756000
21.546591	-0.746467	47.802000
21.567526	-0.736567	47.847000
21.588049	-0.711156	47.893000
21.608648	-0.699476	47.939000
21.629785	-0.706421	47.985000
21.650753	-0.715744	48.031000
21.672035	-0.704544	48.076000
21.693362	-0.681255	48.122000
21.714653	-0.655108	48.168000
21.735252	-0.654350	48.214000
21.755233	-0.677767	48.260000
21.776297	-0.712186	48.306000
21.797150	-0.749566	48.351000
21.818264	-0.776990	48.397000
21.891555	-0.795267	48.443000
21.912141	-0.790302	48.600000
21.983176	-0.786145	48.645000
22.004442	-0.797929	48.801000
22.025416	-0.784370	48.847000
22.046459	-0.768750	48.893000
22.068303	-0.758241	48.939000
22.089252	-0.735757	48.985000
22.109504	-0.708578	49.031000
22.130301	-0.677464	49.077000
22.150655	-0.648936	49.122000
22.171665	-0.636751	49.168000
22.192754	-0.640865	49.214000
22.213968	-0.651389	49.260000
22.236264	-0.657799	49.306000
22.256425	-0.668424	49.352000
22.277145	-0.707608	49.398000
22.298179	-0.776059	49.443000
22.318576	-0.868904	49.489000
22.394387	-1.141170	49.534000
22.414777	-1.152613	49.698000
22.485684	-1.132816	49.744000
22.506635	-1.182022	49.900000
22.528633	-1.223086	49.946000
22.549409	-1.255927	49.992000
22.570329	-1.266401	50.038000
22.591670	-1.235060	50.084000
22.612148	-1.186457	50.130000
22.632724	-1.134972	50.175000
22.654142	-1.085743	50.221000
22.675903	-1.049103	50.267000
22.696078	-1.036237	50.313000
22.717688	-1.038579	50.359000
22.737575	-1.047331	50.404000
22.758460	-1.058734	50.450000
22.779152	-1.064943	50.496000
22.800341	-1.047311	50.542000
22.822615	-1.026933	50.587000
23.087116	-0.750469	50.633000
23.109012	-0.649676	51.213000
23.130287	-0.629623	51.258000
23.150956	-0.595001	51.304000
23.171477	-0.554510	51.350000
23.191999	-0.511525	51.395000
23.212230	-0.463818	51.441000
23.233449	-0.416836	51.487000
23.254894	-0.378914	51.533000
23.276759	-0.345427	51.579000
23.298334	-0.323234	51.625000
23.318918	-0.305760	51.671000
23.339316	-0.292766	51.716000
23.410482	-0.298617	51.762000
23.431538	-0.337913	51.918000
23.503924	-0.380861	51.964000
23.525344	-0.460370	52.120000
23.546028	-0.483499	52.166000
23.566783	-0.510280	52.212000
23.587914	-0.538722	52.258000
23.608504	-0.562843	52.304000
23.630073	-0.579611	52.350000
23.651837	-0.590519	52.395000
23.672588	-0.586607	52.441000
23.692832	-0.559538	52.487000
23.713748	-0.533280	52.532000
23.734522	-0.529152	52.578000
23.756015	-0.542992	52.624000
23.776514	-0.548251	52.669000
23.797269	-0.533442	52.715000
23.819225	-0.496569	52.761000
23.840100	-0.449281	52.807000
23.910813	-0.373663	52.853000
23.931974	-0.355458	53.008000
24.003432	-0.316941	53.054000
24.024817	-0.256273	53.210000
24.045669	-0.222541	53.256000
24.066349	-0.199236	53.302000
24.087166	-0.187006	53.348000
24.107656	-0.180348	53.394000
24.129098	-0.184471	53.439000
24.149976	-0.201453	53.485000
24.171140	-0.230042	53.531000
24.192010	-0.268246	53.576000
24.212748	-0.282000	53.622000
24.233463	-0.267959	53.668000
24.254049	-0.254133	53.714000
24.275418	-0.263935	53.760000
24.296571	-0.301013	53.805000
24.318029	-0.348412	53.851000
24.339112	-0.390650	53.897000
24.411020	-0.428721	53.943000
24.431191	-0.421182	54.099000
24.502620	-0.410674	54.145000
24.523676	-0.405815	54.300000
24.545211	-0.397967	54.346000
24.566756	-0.360644	54.392000
24.587263	-0.310216	54.438000
24.607847	-0.263804	54.484000
24.628609	-0.241742	54.530000
24.649860	-0.244400	54.575000
24.670866	-0.259099	54.621000
24.692482	-0.278219	54.667000
24.713185	-0.300126	54.713000
24.733736	-0.326119	54.758000
24.754584	-0.364561	54.804000
24.775352	-0.412882	54.850000
24.796597	-0.455622	54.895000
24.817594	-0.483086	54.942000
24.838992	-0.500894	54.988000
24.914269	-0.523872	55.033000
24.935300	-0.495043	55.198000
25.007279	-0.456736	55.244000
25.028303	-0.329440	55.400000
25.049396	-0.322954	55.446000
25.069797	-0.318578	55.492000
25.091125	-0.313618	55.538000
25.112206	-0.309042	55.584000
25.133122	-0.305549	55.630000
25.154079	-0.298334	55.675000
25.175287	-0.282822	55.721000
25.195791	-0.264178	55.767000
25.216144	-0.247743	55.813000
25.237020	-0.238914	55.859000
25.257835	-0.232933	55.904000
25.279448	-0.226140	55.950000
25.300964	-0.219906	55.996000
25.322253	-0.211400	56.042000
25.343286	-0.204273	56.087000
25.609132	-0.239178	56.133000
25.630355	-0.163610	56.713000
25.651070	-0.143970	56.759000
25.670945	-0.122740	56.805000
25.692653	-0.102292	56.851000
25.713554	-0.084261	56.896000
25.734076	-0.052804	56.942000
25.755840	-0.009499	56.988000
25.776591	0.026857	57.033000
25.797451	0.065568	57.079000
25.818412	0.103697	57.125000
25.839040	0.145262	57.171000
25.860569	0.177370	57.216000
25.932713	0.280772	57.262000
25.954280	0.282716	57.419000
26.023783	0.262208	57.464000
26.045066	0.220367	57.620000
26.065727	0.224970	57.666000
26.086628	0.226651	57.712000
26.107867	0.228090	57.758000
26.129267	0.231780	57.804000
26.150110	0.241688	57.850000
26.171497	0.258902	57.895000
26.192166	0.276583	57.941000
26.213416	0.278734	57.987000
26.234190	0.274649	58.033000
26.255049	0.264065	58.079000
26.276893	0.251300	58.124000
26.298324	0.235409	58.170000
26.318862	0.226873	58.216000
26.339830	0.221543	58.262000
26.360660	0.211851	58.308000
26.431555	0.268800	58.354000
26.453542	0.289612	58.510000
26.525332	0.306658	58.556000
26.545910	0.312579	58.712000
26.566884	0.328070	58.758000
26.587789	0.351535	58.804000
26.608004	0.373539	58.849000
26.629387	0.400151	58.895000
26.650532	0.432699	58.941000
26.672353	0.479150	58.987000
26.692962	0.522811	59.033000
26.713202	0.559317	59.079000
26.733765	0.580469	59.124000
26.755158	0.594936	59.170000
26.776072	0.610084	59.216000
26.797305	0.630482	59.261000
26.819167	0.632440	59.307000
26.839570	0.608136	59.353000
26.860602	0.565528	59.399000
26.932096	0.384594	59.444000
26.952350	0.333633	59.600000
27.023998	0.286417	59.646000
27.045796	0.141124	59.802000
27.066072	0.110387	59.848000
27.086729	0.093492	59.894000
27.107400	0.084867	59.939000
27.128197	0.075533	59.985000
27.149086	0.061632	60.031000
27.170410	0.034660	60.077000
27.192385	0.007448	60.123000
27.213165	0.010164	60.169000
27.233820	0.047851	60.214000
27.254242	0.085060	60.260000
27.276371	0.103759	60.306000
27.297371	0.117676	60.352000
27.317994	0.132982	60.397000
27.340168	0.158613	60.443000
27.360487	0.190061	60.489000
27.435157	0.298424	60.535000
27.456415	0.321619	60.699000
27.527869	0.352640	60.745000
27.548716	0.439231	60.901000
27.569696	0.427758	60.946000
27.590303	0.407339	60.992000
27.611317	0.384431	61.038000
27.633050	0.360226	61.084000
27.654322	0.338580	61.130000
27.675034	0.326737	61.176000
27.696181	0.329861	61.222000
27.716684	0.334424	61.267000
27.737224	0.339981	61.313000
27.758523	0.340396	61.359000
27.779097	0.340557	61.405000
27.800325	0.329973	61.450000
27.821203	0.308682	61.496000
27.841861	0.272611	61.542000
27.863621	0.244203	61.588000
28.129705	-0.451036	61.633000
28.150550	-0.715452	62.213000
28.171428	-0.715836	62.259000
28.191929	-0.711327	62.305000
28.213960	-0.704816	62.350000
28.235445	-0.701858	62.396000
28.255277	-0.706265	62.442000
28.276810	-0.717551	62.487000
28.297521	-0.733287	62.533000
28.317865	-0.746956	62.579000
28.339060	-0.756523	62.625000
28.359262	-0.763901	62.670000
28.381200	-0.779460	62.717000
28.453138	-0.866207	62.762000
28.473094	-0.894009	62.919000
28.544875	-0.917401	62.965000
28.565737	-0.989178	63.121000
28.587220	-1.021891	63.166000
28.608788	-1.050268	63.212000
28.630148	-1.070303	63.258000
28.650716	-1.080105	63.304000
28.671627	-1.074684	63.350000
28.692722	-1.058674	63.395000
28.713040	-1.037452	63.441000
28.733742	-1.010772	63.487000
28.755463	-0.981929	63.533000
28.777159	-0.951685	63.578000
28.797626	-0.916433	63.624000
28.818283	-0.875078	63.670000
28.838217	-0.831586	63.716000
28.859493	-0.786860	63.762000
28.880766	-0.749677	63.808000
28.952880	-0.685747	63.853000
28.973256	-0.693636	64.009000
29.045075	-0.709511	64.055000
29.065938	-0.727323	64.211000
29.087211	-0.700854	64.257000
29.107970	-0.657838	64.303000
29.129858	-0.611189	64.348000
29.150139	-0.574106	64.394000
29.171351	-0.547504	64.440000
29.191557	-0.528980	64.486000
29.212918	-0.515583	64.531000
29.233618	-0.525311	64.577000
29.254766	-0.542069	64.623000
29.276478	-0.533179	64.669000
29.297753	-0.498748	64.715000
29.318136	-0.443217	64.760000
29.339025	-0.375242	64.806000
29.360376	-0.304678	64.852000
29.380535	-0.248050	64.897000
29.452189	-0.236946	64.943000
29.474071	-0.279365	65.099000
29.544100	-0.328367	65.145000
29.565136	-0.488969	65.301000
29.585720	-0.514307	65.347000
29.606857	-0.531757	65.392000
29.629281	-0.549745	65.439000
29.650301	-0.571793	65.485000
29.671294	-0.596723	65.530000
29.692139	-0.621553	65.576000
29.712829	-0.648228	65.622000
29.733450	-0.668227	65.668000
29.754289	-0.680099	65.714000
29.774840	-0.681946	65.759000
29.796479	-0.677100	65.805000
29.817898	-0.670287	65.851000
29.839003	-0.660312	65.896000
29.860238	-0.645694	65.942000
29.880580	-0.617215	65.988000
29.956660	-0.449901	66.034000
29.977438	-0.417921	66.199000
30.048635	-0.391082	66.245000
30.069681	-0.317656	66.401000
30.090325	-0.361724	66.447000
30.111971	-0.420642	66.493000
30.131862	-0.479966	66.538000
30.153504	-0.533634	66.584000
30.174007	-0.581131	66.630000
30.194880	-0.617428	66.676000
30.216309	-0.641606	66.721000
30.236971	-0.652322	66.767000
30.258385	-0.655597	66.813000
30.279849	-0.653841	66.859000
30.300456	-0.648794	66.905000
30.321651	-0.633883	66.951000
30.341968	-0.608221	66.996000
30.362834	-0.571389	67.042000
30.383597	-0.532125	67.088000
30.649886	-0.328734	67.134000
30.671096	-0.242251	67.713000
30.691701	-0.244275	67.759000
30.712900	-0.243194	67.805000
30.734738	-0.241388	67.851000
30.755318	-0.245718	67.897000
30.775459	-0.252876	67.943000
30.797132	-0.257253	67.988000
30.818131	-0.255259	68.034000
30.838060	-0.248535	68.080000
30.860292	-0.232363	68.125000
30.881531	-0.201493	68.171000
30.902242	-0.155286	68.217000
30.973554	-0.005773	68.263000
30.994566	0.027982	68.419000
31.065720	0.074419	68.465000
31.087104	0.122690	68.621000
31.107924	0.117304	68.667000
31.129099	0.126729	68.712000
31.149829	0.164615	68.758000
31.170592	0.221084	68.804000
31.191109	0.289763	68.850000
31.211854	0.361664	68.896000
31.233479	0.420310	68.942000
31.254849	0.449059	68.987000
31.275440	0.450395	69.033000
31.296101	0.437512	69.079000
31.316847	0.421070	69.125000
31.337965	0.405682	69.170000
31.358658	0.404109	69.216000
31.380035	0.429165	69.262000
31.401987	0.467920	69.308000
31.472665	0.511383	69.354000
31.493424	0.472537	69.509000
31.564546	0.413565	69.555000
31.586240	0.243834	69.711000
31.607448	0.240043	69.757000
31.629352	0.254645	69.803000
31.649145	0.276310	69.849000
31.670120	0.291448	69.894000
31.691042	0.283418	69.940000
31.711861	0.264600	69.986000
31.733038	0.246908	70.032000
31.753945	0.237357	70.078000
31.775067	0.227605	70.123000
31.796479	0.223476	70.169000
31.816894	0.216147	70.215000
31.837476	0.216440	70.261000
31.858784	0.222119	70.306000
31.880113	0.229539	70.352000
31.901294	0.241451	70.398000
31.972829	0.326853	70.444000
31.993444	0.365761	70.599000
32.064451	0.413221	70.645000
32.086362	0.573574	70.801000
32.107624	0.609301	70.847000
32.128773	0.643246	70.893000
32.150058	0.677738	70.939000
32.170678	0.703360	70.984000
32.191028	0.709095	71.030000
32.211977	0.695915	71.076000
32.232467	0.670670	71.122000
32.253573	0.638189	71.167000
32.275198	0.594956	71.213000
32.296293	0.560889	71.259000
32.317415	0.561303	71.305000
32.337941	0.580812	71.351000
32.358372	0.619987	71.396000
32.380093	0.675588	71.442000
32.400673	0.725792	71.488000
32.476463	0.808084	71.534000
32.497166	0.842289	71.699000
32.569778	0.860958	71.745000
32.590562	0.738811	71.901000
32.612056	0.686668	71.947000
32.632552	0.640531	71.993000
32.654008	0.593346	72.039000
32.674192	0.516081	72.085000
32.695072	0.424583	72.130000
32.715733	0.343945	72.176000
32.737143	0.277305	72.222000
32.758837	0.220013	72.268000
32.779656	0.179022	72.313000
32.800789	0.149448	72.359000
32.821377	0.119672	72.405000
32.842210	0.090170	72.450000
32.862940	0.066642	72.496000
32.884558	0.056591	72.542000
32.905799	0.062096	72.588000
33.170359	0.089389	72.633000
33.191251	0.271495	73.213000
33.212799	0.293730	73.259000
33.233683	0.297197	73.305000
33.255142	0.300388	73.351000
33.275650	0.303755	73.397000
33.296049	0.300756	73.443000
33.317352	0.289612	73.489000
33.339007	0.268644	73.534000
33.359822	0.247447	73.580000
33.381432	0.226378	73.626000
33.402123	0.228241	73.671000
33.422550	0.255454	73.717000
33.494313	0.435557	73.763000
33.515162	0.471353	73.919000
33.587102	0.495631	73.965000
33.608093	0.503555	74.121000
33.628750	0.530839	74.167000
33.649215	0.535914	74.213000
33.670506	0.523036	74.259000
33.691052	0.494477	74.305000
33.712961	0.451724	74.351000
33.733933	0.395454	74.396000
33.754440	0.341084	74.442000
33.775474	0.295411	74.488000
33.796811	0.261264	74.534000
33.816987	0.245338	74.580000
33.839458	0.239760	74.626000
33.860314	0.230099	74.671000
33.881409	0.215410	74.717000
33.902443	0.193417	74.763000
33.923622	0.174600	74.809000
33.993914	0.284321	74.855000
34.014856	0.326853	75.010000
34.086769	0.368109	75.056000
34.107937	0.467183	75.212000
34.128959	0.497642	75.258000
34.149696	0.531792	75.304000
34.170634	0.570241	75.350000
34.191337	0.607903	75.395000
34.212213	0.638381	75.441000
34.233488	0.665073	75.487000
34.254668	0.688111	75.533000
34.275471	0.710658	75.578000
34.295724	0.728371	75.624000
34.317346	0.740930	75.669000
34.337761	0.751777	75.715000
34.359086	0.760388	75.761000
34.380281	0.781222	75.807000
34.401798	0.819338	75.853000
34.422609	0.871991	75.898000
34.492667	1.005630	75.944000
34.513450	1.014307	76.099000
34.585579	1.021313	76.145000
34.607304	1.130232	76.301000
34.628395	1.176656	76.347000
34.648875	1.242392	76.393000
34.669889	1.336859	76.439000
34.691015	1.437869	76.484000
34.711691	1.529691	76.530000
34.732709	1.598522	76.576000
34.754162	1.638750	76.622000
34.774699	1.660404	76.667000
34.795622	1.676534	76.713000
34.816063	1.681120	76.759000
34.837055	1.671230	76.805000
34.858069	1.640508	76.850000
34.879210	1.591233	76.896000
34.900766	1.523446	76.942000
34.921331	1.440770	76.987000
34.996874	1.122192	77.033000
35.018845	1.046376	77.199000
35.090758	0.978605	77.245000
35.111381	0.891209	77.401000
35.131999	0.895227	77.447000
35.152507	0.878645	77.493000
35.173014	0.841309	77.538000
35.194339	0.784846	77.585000
35.215784	0.714055	77.630000
35.236621	0.640082	77.676000
35.258531	0.579303	77.722000
35.278888	0.544448	77.767000
35.299576	0.529775	77.813000
35.320586	0.525840	77.859000
35.342046	0.516020	77.905000
35.363575	0.487421	77.951000
35.384589	0.422768	77.997000
35.405189	0.330432	78.043000
35.425588	0.237347	78.088000
35.692377	-0.238611	78.134000
35.712750	-0.122295	78.714000
35.733791	-0.084665	78.760000
35.754229	-0.060752	78.805000
35.775477	-0.039887	78.851000
35.796430	-0.024573	78.897000
35.817771	-0.022748	78.943000
35.839434	-0.039614	78.989000
35.860595	-0.074508	79.035000
35.880322	-0.125894	79.080000
35.901494	-0.180296	79.126000
35.922616	-0.243376	79.172000
35.943384	-0.297960	79.218000
36.015243	-0.366949	79.263000
36.036185	-0.380694	79.419000
36.107844	-0.403979	79.465000
36.128690	-0.487052	79.621000
36.150030	-0.501296	79.667000
36.170307	-0.507633	79.713000
36.191832	-0.507623	79.759000
36.213069	-0.498208	79.804000
36.233407	-0.478933	79.850000
36.254376	-0.452250	79.895000
36.274864	-0.423773	79.941000
36.296177	-0.394443	79.987000
36.317161	-0.361777	80.033000
36.337952	-0.329298	80.079000
36.359543	-0.299125	80.124000
36.380542	-0.272096	80.170000
36.401230	-0.246183	80.216000
36.421610	-0.224457	80.262000
36.442809	-0.221395	80.307000
36.514514	-0.211218	80.354000
36.535813	-0.207933	80.510000
36.607588	-0.212788	80.555000
36.628460	-0.246051	80.711000
36.649125	-0.244754	80.757000
36.669862	-0.236219	80.803000
36.690592	-0.219582	80.849000
36.712141	-0.194804	80.895000
36.733654	-0.159612	80.940000
36.754411	-0.116981	80.986000
36.775122	-0.068741	81.032000
36.796082	-0.013384	81.078000
36.816490	0.037902	81.124000
36.837765	0.069060	81.170000
36.859248	0.092669	81.216000
36.880577	0.120094	81.262000
36.902099	0.153949	81.307000
36.922083	0.190681	81.353000
36.942871	0.231073	81.398000
37.013881	0.371562	81.444000
37.035172	0.412829	81.599000
37.107585	0.449018	81.645000
37.127681	0.539569	81.802000
37.148507	0.573902	81.848000
37.168834	0.625151	81.893000
37.189567	0.679086	81.939000
37.210820	0.733035	81.985000
37.232241	0.783309	82.031000
37.253663	0.828024	82.076000
37.274166	0.860312	82.122000
37.295023	0.864502	82.167000
37.315780	0.857284	82.213000
37.336733	0.843392	82.259000
37.357847	0.822267	82.305000
37.379410	0.797666	82.351000
37.400129	0.776222	82.396000
37.421197	0.763256	82.442000
37.442019	0.759061	82.488000
37.517920	0.856819	82.534000
37.539272	0.894576	82.700000
37.610448	0.932490	82.746000
37.630886	1.108129	82.902000
37.651528	1.177438	82.947000
37.672926	1.237744	82.993000
37.694390	1.279363	83.039000
37.716172	1.309343	83.085000
37.736718	1.333315	83.131000
37.757156	1.362075	83.177000
37.777986	1.385170	83.222000
37.798958	1.408231	83.268000
37.820049	1.422405	83.314000
37.841340	1.425938	83.360000
37.862634	1.415721	83.405000
37.883941	1.382041	83.451000
37.904390	1.314655	83.497000
37.925147	1.229942	83.543000
37.945927	1.140615	83.589000
38.212216	0.546706	83.634000
38.232731	0.505744	84.214000
38.253838	0.558753	84.260000
38.274687	0.627145	84.306000
38.295985	0.694466	84.352000
38.317003	0.757213	84.397000
38.337188	0.811566	84.443000
38.358275	0.854390	84.489000
38.379112	0.895298	84.534000
38.399623	0.936745	84.580000
38.421056	0.969018	84.626000
38.442916	0.997357	84.672000
38.464214	1.030045	84.718000
38.536028	1.128072	84.763000
38.556977	1.158246	84.919000
38.627880	1.195382	84.966000
38.649455	1.379883	85.122000
38.670738	1.416592	85.168000
38.692006	1.445248	85.213000
38.712513	1.462798	85.259000
38.732901	1.454778	85.305000
38.753735	1.426526	85.351000
38.774987	1.379339	85.396000
38.795567	1.319595	85.442000
38.816716	1.240793	85.488000
38.838587	1.157868	85.533000
38.859198	1.076610	85.579000
38.879816	1.000915	85.625000
38.900931	0.928545	85.671000
38.921518	0.861038	85.717000
38.942091	0.801439	85.762000
38.963716	0.752448	85.808000
39.034976	0.657349	85.854000
39.055702	0.656466	86.010000
39.127224	0.674533	86.056000
39.147835	0.836113	86.212000
39.168972	0.893477	86.258000
39.190497	0.944854	86.303000
39.211876	0.995776	86.349000
39.232775	1.049408	86.395000
39.253855	1.097058	86.440000
39.273905	1.134957	86.487000
39.295099	1.175045	86.532000
39.316141	1.214214	86.578000
39.337420	1.252346	86.624000
39.358707	1.285501	86.670000
39.379710	1.311792	86.716000
39.400286	1.337831	86.761000
39.421354	1.368159	86.807000
39.441934	1.391305	86.853000
39.462918	1.400589	86.899000
39.534939	1.489960	86.944000
39.556014	1.522240	87.100000
39.627240	1.569709	87.146000
39.648289	1.677918	87.302000
39.669023	1.679497	87.348000
39.690129	1.679214	87.394000
39.711397	1.694572	87.439000
39.732699	1.728540	87.485000
39.753525	1.779482	87.531000
39.773875	1.817972	87.577000
39.794409	1.826072	87.623000
39.815638	1.805733	87.668000
39.836979	1.772960	87.714000
39.858062	1.751368	87.760000
39.879526	1.739645	87.806000
39.900256	1.719114	87.851000
39.921082	1.681910	87.897000
39.941985	1.635021	87.943000
39.962673	1.576755	87.989000
40.130468	1.440402	88.034000
40.151578	1.607708	88.402000
40.173019	1.592540	88.447000
40.194118	1.574211	88.494000
40.214990	1.536707	88.539000
40.235870	1.478209	88.585000
40.256519	1.410912	88.631000
40.277583	1.351445	88.677000
40.298597	1.315910	88.723000
40.320211	1.304454	88.769000
40.341363	1.291036	88.814000
40.362405	1.266965	88.860000
40.383238	1.227735	88.906000
40.404226	1.185519	88.952000
40.425286	1.141569	88.997000
40.445566	1.106993	89.043000
40.467203	1.094454	89.089000
40.732482	1.316630	89.134000
40.753615	1.395492	89.714000
40.774791	1.408734	89.760000
40.795786	1.412857	89.806000
40.816877	1.409585	89.852000
40.837669	1.398083	89.898000
40.858398	1.390936	89.944000
40.880454	1.393163	89.990000
40.900907	1.393814	90.035000
40.921556	1.380309	90.081000
40.943343	1.357357	90.127000
40.964937	1.343516	90.173000
40.985514	1.337120	90.219000
41.055160	1.418587	90.264000
41.076175	1.465089	90.420000
41.147765	1.525899	90.466000
41.169156	1.723031	90.621000
41.190428	1.777969	90.668000
41.210896	1.830980	90.713000
41.231987	1.870328	90.759000
41.253347	1.888730	90.805000
41.274315	1.893138	90.851000
41.295391	1.886318	90.897000
41.316866	1.879503	90.943000
41.337716	1.875501	90.988000
41.358791	1.875571	91.034000
41.379287	1.885950	91.080000
41.400105	1.911002	91.126000
41.421108	1.950146	91.171000
41.442268	1.993985	91.217000
41.463628	2.027770	91.263000
41.485023	2.043089	91.309000
41.555945	2.012076	91.355000
41.576840	2.015358	91.511000
41.648312	2.027241	91.557000
41.669272	1.980008	91.713000
41.690774	1.946875	91.758000
41.711539	1.931989	91.804000
41.732038	1.944064	91.850000
41.752599	1.977359	91.896000
41.773663	2.012127	91.942000
41.794704	2.041485	91.987000
41.815976	2.061266	92.033000
41.837559	2.081889	92.079000
41.858362	2.104111	92.125000
41.879130	2.133683	92.170000
41.899737	2.161723	92.216000
41.920606	2.178997	92.262000
41.942039	2.169056	92.308000
41.962769	2.125018	92.353000
41.983917	2.057414	92.400000
42.055792	1.816211	92.446000
42.076342	1.766311	92.601000
42.147671	1.733000	92.647000
42.168681	1.674143	92.803000
42.190153	1.664041	92.849000
42.211409	1.642725	92.895000
42.232535	1.615838	92.941000
42.253691	1.579076	92.987000
42.274198	1.536272	93.033000
42.295739	1.485022	93.078000
42.316234	1.435475	93.124000
42.337026	1.391091	93.169000
42.358639	1.355577	93.215000
42.379642	1.332613	93.261000
42.400518	1.322280	93.307000
42.420868	1.323828	93.352000
42.441425	1.335663	93.398000
42.462189	1.358128	93.444000
42.483649	1.401580	93.489000
42.558655	1.648367	93.535000
42.579235	1.722340	93.700000
42.652074	1.793500	93.746000
42.673696	2.015958	93.902000
42.694491	2.080065	93.948000
42.715102	2.149963	93.994000
42.735989	2.218186	94.040000
42.756554	2.283901	94.086000
42.777380	2.343078	94.131000
42.798310	2.389188	94.177000
42.819966	2.430939	94.223000
42.841303	2.473096	94.269000
42.861948	2.519381	94.315000
42.883112	2.576641	94.360000
42.903792	2.638969	94.406000
42.924365	2.694650	94.452000
42.945717	2.746200	94.497000
42.967015	2.789288	94.544000
42.988448	2.829417	94.589000
43.253570	3.060872	94.635000
43.274803	3.281759	95.214000
43.295714	3.323378	95.260000
43.316367	3.378021	95.306000
43.337154	3.423748	95.352000
43.358311	3.426969	95.398000
43.378945	3.397003	95.443000
43.400063	3.350246	95.489000
43.421719	3.300850	95.535000
43.442871	3.256258	95.581000
43.463805	3.214054	95.627000
43.484727	3.170549	95.673000
43.504823	3.129054	95.719000
43.576244	3.051920	95.764000
43.597785	3.046422	95.920000
43.669314	3.043719	95.966000
43.690036	3.064587	96.122000
43.710755	3.067571	96.168000
43.731466	3.062016	96.213000
43.752510	3.047626	96.260000
43.773621	3.032262	96.305000
43.794892	3.023664	96.351000
43.817025	3.022551	96.397000
43.837466	3.032626	96.443000
43.857901	3.042142	96.489000
43.879142	3.054733	96.534000
43.899944	3.069578	96.580000
43.920640	3.091069	96.626000
43.942242	3.117616	96.671000
43.963248	3.143570	96.717000
43.984071	3.162986	96.763000
44.004847	3.178417	96.809000
44.076364	3.285561	96.855000
44.096975	3.339141	97.010000
44.169480	3.393662	97.056000
44.190487	3.591999	97.212000
44.210898	3.684290	97.258000
44.231478	3.789404	97.304000
44.252569	3.890904	97.350000
44.273264	3.977235	97.395000
44.295001	4.043419	97.441000
44.315950	4.091069	97.487000
44.336718	4.125116	97.533000
44.357517	4.151808	97.579000
44.378459	4.171397	97.624000
44.399308	4.174673	97.670000
44.420333	4.159192	97.716000
44.441063	4.140037	97.761000
44.462262	4.123157	97.807000
44.483507	4.117043	97.853000
44.504479	4.122925	97.898000
44.575585	4.205666	97.944000
44.596673	4.215075	98.101000
44.668463	4.222364	98.146000
44.690004	4.313786	98.302000
44.710945	4.349673	98.348000
44.731656	4.393791	98.394000
44.752447	4.442732	98.440000
44.773092	4.500750	98.486000
44.793857	4.571155	98.532000
44.815209	4.656000	98.578000
44.836577	4.746124	98.624000
44.857749	4.838614	98.670000
44.879209	4.924613	98.715000
44.899800	5.003433	98.761000
44.920438	5.070819	98.807000
44.941775	5.113000	98.852000
44.962390	5.132285	98.898000
44.983900	5.140516	98.944000
45.005310	5.146902	98.989000
45.079055	5.148464	99.036000
45.100761	5.149639	99.200000
45.172425	5.166393	99.246000
45.192609	5.194249	99.402000
45.213489	5.187235	99.448000
45.234949	5.190042	99.494000
45.255571	5.187488	99.539000
45.277085	5.192215	99.586000
45.298307	5.202602	99.632000
45.319136	5.215451	99.677000
45.340070	5.224084	99.723000
45.361007	5.238868	99.769000
45.381422	5.278541	99.815000
45.402383	5.355250	99.861000
45.423424	5.451555	99.906000
45.444849	5.540578	99.952000
45.465806	5.619451	99.998000
45.486617	5.681826	100.044000
45.507354	5.734406	100.089000
45.773567	5.813300	100.135000
45.794108	5.609602	100.715000
45.815764	5.516034	100.761000
45.836364	5.414813	100.806000
45.856805	5.323363	100.852000
45.878066	5.254559	100.898000
45.899806	5.208554	100.944000
45.920509	5.186080	100.990000
45.941343	5.193686	101.035000
45.962234	5.222809	101.081000
45.983264	5.254499	101.127000
46.004101	5.286318	101.173000
46.025200	5.327296	101.219000
46.097390	5.469237	101.265000
46.118135	5.507709	101.420000
46.188934	5.575734	101.466000
46.209637	5.700858	101.622000
46.230771	5.733608	101.668000
46.251969	5.801367	101.714000
46.273737	5.877589	101.760000
46.294997	5.918142	101.806000
46.315527	5.940648	101.851000
46.336468	5.998671	101.898000
46.357433	6.052317	101.943000
46.377970	6.067582	101.989000
46.399054	6.065507	102.035000
46.420168	6.066346	102.081000
46.441121	6.065456	102.126000
46.462235	6.056820	102.172000
46.483142	6.045199	102.218000
46.503945	6.037613	102.264000
46.525262	6.034215	102.310000
46.596872	6.149930	102.355000
46.618616	6.225798	102.512000
46.689923	6.288960	102.558000
46.710495	6.373625	102.713000
46.731210	6.371021	102.759000
46.752151	6.364797	102.805000
46.772681	6.391191	102.851000
46.794237	6.444260	102.897000
46.815344	6.509487	102.943000
46.836677	6.581802	102.988000
46.857553	6.654447	103.034000
46.878763	6.729774	103.079000
46.899593	6.792572	103.125000
46.920127	6.841253	103.171000
46.941640	6.892178	103.217000
46.963296	6.947706	103.262000
46.984045	6.989346	103.309000
47.004464	7.019471	103.354000
47.024944	7.029950	103.400000
47.095774	7.126843	103.446000
47.116785	7.189793	103.602000
47.188556	7.242570	103.648000
47.209997	7.322977	103.804000
47.230872	7.357740	103.850000
47.251357	7.399560	103.895000
47.272774	7.443997	103.941000
47.293485	7.487859	103.987000
47.314941	7.530265	104.033000
47.336501	7.569617	104.079000
47.357354	7.596371	104.125000
47.378168	7.603022	104.171000
47.398675	7.599828	104.217000
47.419824	7.605283	104.262000
47.440692	7.622975	104.308000
47.462018	7.633233	104.353000
47.483174	7.609872	104.399000
47.504192	7.576295	104.445000
47.525130	7.550046	104.491000
47.600823	7.583251	104.537000
47.621526	7.625590	104.701000
47.692118	7.680609	104.747000
47.712982	7.992371	104.903000
47.733878	8.100517	104.948000
47.755134	8.214081	104.994000
47.776194	8.344244	105.040000
47.798096	8.467326	105.086000
47.818849	8.591550	105.132000
47.839406	8.698678	105.178000
47.860397	8.778173	105.223000
47.881223	8.835539	105.269000
47.902672	8.913959	105.315000
47.924139	9.011231	105.361000
47.945530	9.114462	105.407000
47.966306	9.209563	105.452000
47.987101	9.291966	105.498000
48.007570	9.357270	105.544000
48.028845	9.434954	105.590000
48.294632	10.093086	105.636000
48.315223	10.092112	106.215000
48.335984	10.100598	106.261000
48.356994	10.124908	106.306000
48.378765	10.165941	106.352000
48.399979	10.222096	106.398000
48.420333	10.291409	106.444000
48.440859	10.366970	106.489000
48.462335	10.441441	106.535000
48.482895	10.524925	106.581000
48.504190	10.619031	106.627000
48.525397	10.723359	106.672000
48.545754	10.831088	106.718000
48.617264	11.210914	106.764000
48.638074	11.287334	106.919000
48.709096	11.352957	106.965000
48.731013	11.647836	107.121000
48.752470	11.748810	107.167000
48.773284	11.860168	107.213000
48.793795	11.976342	107.259000
48.814352	12.094571	107.304000
48.835343	12.199358	107.350000
48.856480	12.300272	107.396000
48.877998	12.418632	107.442000
48.899020	12.550625	107.488000
48.919373	12.681309	107.534000
48.940092	12.813131	107.579000
48.961429	12.936699	107.625000
48.982359	13.045510	107.671000
49.002954	13.119581	107.716000
49.024406	13.174757	107.762000
49.045693	13.224910	107.808000
49.116370	13.443929	107.854000
49.136589	13.513284	108.010000
49.208825	13.573614	108.056000
49.229981	13.822541	108.211000
49.251003	13.920368	108.257000
49.272935	14.032730	108.303000
49.293323	14.143728	108.349000
49.313788	14.244818	108.395000
49.335075	14.337936	108.440000
49.355705	14.420756	108.486000
49.376539	14.475472	108.532000
49.397907	14.515114	108.578000
49.419547	14.574618	108.623000
49.440008	14.664388	108.669000
49.460815	14.760784	108.715000
49.481080	14.858834	108.760000
49.502071	14.949167	108.806000
49.523024	15.045520	108.852000
49.544230	15.140671	108.898000
49.616943	15.462851	108.943000
49.637800	15.554317	109.101000
49.709179	15.644321	109.147000
49.730658	15.958617	109.303000
49.751688	16.049342	109.349000
49.772767	16.121744	109.395000
49.794039	16.189235	109.440000
49.814911	16.255954	109.486000
49.835737	16.327644	109.532000
49.856463	16.401013	109.578000
49.877377	16.466932	109.624000
49.898319	16.533592	109.670000
49.919636	16.609480	109.716000
49.940701	16.681374	109.762000
49.961857	16.766152	109.808000
49.982856	16.864989	109.853000
50.003440	16.974013	109.899000
50.024781	17.091780	109.945000
50.045430	17.214675	109.990000
50.121442	17.619435	110.036000
50.141869	17.715216	110.201000
50.213321	17.801290	110.247000
50.234597	18.110422	110.403000
50.256068	18.227737	110.448000
50.277117	18.363111	110.494000
50.297547	18.492300	110.540000
50.318173	18.599157	110.586000
50.339818	18.703035	110.632000
50.360651	18.810841	110.677000
50.381066	18.911437	110.723000
50.402780	19.002157	110.769000
50.423479	19.080180	110.815000
50.444363	19.149761	110.861000
50.465481	19.219444	110.906000
50.485842	19.295258	110.952000
50.507329	19.375501	110.998000
50.528143	19.478239	111.044000
50.549411	19.592454	111.090000
50.814755	20.816418	111.135000
50.835869	21.467600	111.715000
50.857710	21.577980	111.761000
50.878455	21.686183	111.807000
50.899269	21.792356	111.852000
50.920272	21.892299	111.898000
50.940526	21.973415	111.944000
50.961632	22.051775	111.990000
50.983038	22.127198	112.036000
51.004172	22.205814	112.082000
51.025290	22.294624	112.127000
51.046116	22.394191	112.173000
51.066565	22.503308	112.218000
51.137395	22.947536	112.264000
51.158413	23.093452	112.420000
51.230561	23.249128	112.466000
51.251037	23.804430	112.621000
51.272370	23.954895	112.667000
51.292924	24.097590	112.713000
51.313776	24.238463	112.759000
51.334637	24.378526	112.805000
51.355528	24.514169	112.850000
51.377242	24.648174	112.896000
51.397803	24.778091	112.942000
51.419082	24.897671	112.988000
51.440208	25.008139	113.034000
51.460523	25.118092	113.080000
51.481453	25.227419	113.125000
51.502770	25.343446	113.171000
51.523900	25.469300	113.217000
51.545294	25.599051	113.262000
51.566178	25.731441	113.308000
51.637081	26.247089	113.354000
51.657918	26.399537	113.510000
51.730366	26.538905	113.556000
51.751276	26.932283	113.711000
51.772241	27.050579	113.757000
51.792986	27.189563	113.803000
51.813063	27.333595	113.849000
51.833870	27.481935	113.895000
51.855180	27.619545	113.941000
51.876321	27.747143	113.986000
51.897685	27.865508	114.032000
51.919075	27.988730	114.078000
51.939571	28.123226	114.124000
51.960289	28.264697	114.169000
51.981657	28.410175	114.215000
52.002191	28.548599	114.261000
52.023824	28.694373	114.307000
52.045357	28.853640	114.352000
52.065695	29.016036	114.398000
52.137796	29.546220	114.444000
52.158469	29.696353	114.601000
52.229894	29.855659	114.647000
52.251419	30.471475	114.803000
52.272991	30.662161	114.849000
52.293336	30.835367	114.895000
52.314143	30.998723	114.940000
52.334827	31.159914	114.986000
52.355768	31.303035	115.032000
52.376187	31.409382	115.077000
52.397367	31.495902	115.123000
52.418565	31.569551	115.169000
52.439752	31.641853	115.215000
52.460659	31.722930	115.260000
52.481258	31.812868	115.306000
52.502399	31.900530	115.352000
52.522784	31.997978	115.398000
52.543940	32.105305	115.444000
52.565534	32.221656	115.489000
52.641336	32.765082	115.535000
52.662177	32.947914	115.701000
52.734290	33.132617	115.747000
52.754878	33.748263	115.903000
52.775450	33.929304	115.949000
52.796722	34.106072	115.995000
52.816960	34.295772	116.040000
52.838263	34.501503	116.086000
52.859876	34.720080	116.132000
52.880817	34.946750	116.178000
52.902270	35.174679	116.223000
52.923284	35.399854	116.269000
52.943826	35.621146	116.315000
52.964851	35.840051	116.361000
52.985262	36.065477	116.407000
53.006234	36.291714	116.452000
53.027936	36.521528	116.499000
53.049546	36.755824	116.544000
53.070188	36.969267	116.590000
53.335759	38.411780	116.636000
53.356224	39.305280	117.215000
53.377069	39.444209	117.261000
53.397614	39.571832	117.307000
53.418682	39.685133	117.353000
53.440027	39.787616	117.398000
53.460561	39.892564	117.444000
53.482128	40.017072	117.490000
53.503250	40.162768	117.536000
53.524399	40.314747	117.581000
53.544703	40.467120	117.627000
53.565740	40.613835	117.673000
53.586620	40.764287	117.719000
53.658629	41.284793	117.765000
53.680558	41.441502	117.920000
53.751207	41.608917	117.966000
53.772106	42.194179	118.122000
53.792878	42.368078	118.168000
53.813543	42.529999	118.213000
53.834473	42.688250	118.259000
53.856539	42.850157	118.305000
53.877012	43.028191	118.351000
53.898180	43.217142	118.397000
53.918445	43.409342	118.442000
53.939571	43.606435	118.488000
53.960477	43.807720	118.534000
53.981192	44.009874	118.580000
54.002959	44.211791	118.626000
54.024227	44.414112	118.671000
54.044415	44.620647	118.717000
54.065007	44.824651	118.763000
54.086417	45.026844	118.808000
54.157147	45.882708	118.854000
54.178104	46.212160	119.010000
54.250086	46.533429	119.056000
54.270904	47.351090	119.212000
54.291577	47.540728	119.258000
54.312307	47.715747	119.304000
54.333271	47.879907	119.349000
