Sample	2mm tape 
date	07/01/2025
	
Temperature (K)	77.00
Angle (deg.)	90.000000
field / T	0.000000
	
		
Approx. trace time (s)	60.0	
		
Current / A	V1  -sample/ uV	time/s
-0.021936	-2.384409	0.000000
-0.022318	-2.420761	0.045000
-0.021937	-2.436574	0.091000
-0.022062	-2.461510	0.137000
-0.022528	-2.517726	0.182000
-0.022098	-2.583193	0.228000
-0.021608	-2.645308	0.274000
-0.021954	-2.705954	0.319000
-0.022384	-2.769905	0.365000
-0.021602	-2.856855	0.411000
-0.022713	-2.852560	0.567000
-0.005070	-2.883227	0.739000
0.077236	-2.889454	0.785000
0.154849	-2.881038	0.831000
0.230678	-2.867430	0.877000
0.308427	-2.845706	0.922000
0.386271	-2.792400	0.968000
0.462359	-2.739866	1.014000
0.537808	-2.704282	1.060000
0.612875	-2.694243	1.106000
0.688610	-2.707487	1.152000
0.765578	-2.727985	1.197000
0.842467	-2.738398	1.243000
0.920287	-2.741884	1.289000
0.996685	-2.750875	1.335000
1.071800	-2.770695	1.380000
1.146110	-2.772674	1.426000
2.115202	-2.706866	1.472000
2.190289	-2.537459	2.052000
2.265174	-2.551622	2.097000
2.340403	-2.569408	2.143000
2.417531	-2.570466	2.189000
2.494665	-2.547197	2.234000
2.571778	-2.513261	2.280000
2.648478	-2.480460	2.326000
2.723878	-2.465033	2.372000
2.798175	-2.473540	2.417000
2.875159	-2.485607	2.463000
2.951640	-2.496598	2.509000
3.028679	-2.505182	2.555000
3.289679	-2.556213	2.601000
3.365068	-2.568787	2.756000
3.622782	-2.581207	2.802000
3.700460	-2.649501	2.958000
3.777036	-2.648165	3.004000
3.854368	-2.627268	3.050000
3.931676	-2.595430	3.095000
4.008217	-2.552155	3.142000
4.083034	-2.513392	3.187000
4.158997	-2.484551	3.233000
4.236216	-2.480319	3.279000
4.313209	-2.473891	3.325000
4.390415	-2.466737	3.371000
4.467142	-2.446163	3.417000
4.544222	-2.406274	3.462000
4.619837	-2.360715	3.508000
4.694458	-2.325646	3.554000
4.770360	-2.308969	3.600000
4.846736	-2.310806	3.646000
5.108609	-2.387791	3.691000
5.185355	-2.442131	3.847000
5.444320	-2.494099	3.893000
5.519828	-2.583071	4.050000
5.596690	-2.614871	4.095000
5.673321	-2.623372	4.141000
5.750511	-2.623313	4.187000
5.827642	-2.614780	4.233000
5.904388	-2.608706	4.278000
5.979158	-2.621337	4.324000
6.053989	-2.640329	4.370000
6.129892	-2.628545	4.416000
6.206617	-2.601181	4.461000
6.283727	-2.581157	4.507000
6.361114	-2.569790	4.553000
6.437274	-2.559647	4.598000
6.512814	-2.547953	4.644000
6.587569	-2.531351	4.690000
6.663549	-2.504406	4.735000
6.942646	-2.372861	4.781000
7.018011	-2.335015	4.947000
7.277020	-2.297982	4.993000
7.354425	-2.190259	5.149000
7.431247	-2.162956	5.195000
7.508037	-2.140981	5.241000
7.585032	-2.119733	5.287000
7.660861	-2.101734	5.333000
7.734796	-2.083711	5.379000
7.810727	-2.070430	5.424000
7.887801	-2.058788	5.470000
7.965042	-2.051867	5.516000
8.042421	-2.047643	5.562000
8.119387	-2.047875	5.608000
8.194722	-2.051691	5.653000
8.269250	-2.058727	5.699000
8.344429	-2.066937	5.744000
8.421129	-2.076902	5.790000
8.498426	-2.091427	5.836000
8.772206	-2.148309	5.882000
8.848760	-2.157124	6.047000
9.110884	-2.158939	6.093000
9.187047	-2.111804	6.249000
9.263889	-2.086549	6.295000
9.340419	-2.057179	6.341000
9.415218	-2.028603	6.387000
9.489951	-2.006611	6.432000
9.567327	-1.990322	6.478000
9.644856	-1.979097	6.524000
9.722276	-1.972924	6.570000
9.799313	-1.973177	6.616000
9.875424	-1.974545	6.662000
9.950128	-1.980546	6.708000
10.025031	-1.985109	6.753000
10.100820	-1.985820	6.799000
10.177617	-1.981773	6.845000
10.255188	-1.975937	6.891000
10.332842	-1.980324	6.936000
11.279178	-1.989116	6.982000
11.355348	-1.871351	7.552000
11.432365	-1.864510	7.598000
11.509037	-1.875580	7.643000
11.585999	-1.880854	7.689000
11.663285	-1.885029	7.735000
11.738610	-1.891373	7.781000
11.812879	-1.893584	7.827000
11.888602	-1.887734	7.872000
11.965424	-1.882939	7.918000
12.042073	-1.874535	7.964000
12.119506	-1.860443	8.010000
12.196698	-1.862825	8.055000
12.455423	-1.936568	8.101000
12.530580	-1.960557	8.257000
12.791512	-1.989479	8.303000
12.868923	-1.939550	8.459000
12.946717	-1.911693	8.505000
13.022836	-1.898378	8.551000
13.098912	-1.879717	8.597000
13.173863	-1.841272	8.643000
13.249351	-1.780811	8.689000
13.326226	-1.702543	8.734000
13.403412	-1.633732	8.780000
13.480280	-1.587363	8.826000
13.557133	-1.569419	8.872000
13.632687	-1.571549	8.917000
13.706873	-1.586575	8.963000
13.783420	-1.605904	9.009000
13.859708	-1.629250	9.054000
13.936692	-1.661966	9.100000
14.014128	-1.700890	9.146000
14.274160	-1.796688	9.192000
14.348980	-1.801750	9.348000
14.608262	-1.805862	9.393000
14.685629	-1.833862	9.550000
14.761897	-1.839723	9.595000
14.839293	-1.850832	9.641000
14.915763	-1.865066	9.687000
14.990312	-1.852517	9.733000
15.065086	-1.801416	9.778000
15.140862	-1.728934	9.824000
15.217793	-1.662455	9.870000
15.294968	-1.622506	9.916000
15.371726	-1.603223	9.962000
15.448942	-1.578615	10.007000
15.524344	-1.549845	10.053000
15.599477	-1.507609	10.099000
15.675194	-1.440599	10.144000
15.751964	-1.385915	10.190000
15.828941	-1.341159	10.236000
16.104251	-1.285960	10.282000
16.180066	-1.284085	10.447000
16.441098	-1.284988	10.493000
16.517423	-1.243373	10.648000
16.594140	-1.201034	10.694000
16.669083	-1.126601	10.740000
16.743397	-1.042550	10.786000
16.820363	-0.983880	10.832000
16.897672	-0.949931	10.877000
16.974984	-0.914639	10.923000
17.052416	-0.878560	10.969000
17.127991	-0.852746	11.015000
17.203287	-0.827671	11.060000
17.278214	-0.801361	11.106000
17.354728	-0.775989	11.152000
17.430907	-0.751480	11.198000
17.507944	-0.733612	11.243000
17.584722	-0.716742	11.289000
17.661607	-0.699121	11.335000
17.937787	-0.637351	11.380000
18.014794	-0.617867	11.548000
18.276320	-0.594538	11.593000
18.352557	-0.479683	11.750000
18.427261	-0.452249	11.795000
18.503109	-0.430118	11.841000
18.579707	-0.385670	11.887000
18.656578	-0.332432	11.933000
18.733889	-0.298498	11.978000
18.811173	-0.283078	12.024000
18.887345	-0.277229	12.070000
18.961890	-0.273660	12.116000
19.036846	-0.280706	12.162000
19.113621	-0.281292	12.207000
19.190426	-0.294869	12.253000
19.268342	-0.326141	12.299000
19.344916	-0.361270	12.345000
19.420972	-0.400821	12.391000
19.495325	-0.454578	12.436000
20.445162	-0.862785	12.482000
20.522465	-0.867351	13.052000
20.600043	-0.871927	13.098000
20.677133	-0.872018	13.144000
20.752776	-0.871036	13.190000
20.828508	-0.868234	13.235000
20.903666	-0.861187	13.281000
20.979922	-0.851632	13.327000
21.057076	-0.839776	13.373000
21.133839	-0.824331	13.419000
21.210461	-0.807088	13.465000
21.287120	-0.784931	13.510000
21.361717	-0.755995	13.556000
21.620206	-0.636003	13.602000
21.697398	-0.610019	13.758000
21.959129	-0.589127	13.804000
22.036086	-0.574711	13.960000
22.111907	-0.586563	14.005000
22.185970	-0.602568	14.051000
22.261665	-0.618739	14.097000
22.338726	-0.636997	14.143000
22.416018	-0.658085	14.188000
22.493189	-0.676736	14.234000
22.569391	-0.688465	14.280000
22.644831	-0.691337	14.326000
22.719532	-0.686235	14.371000
22.795886	-0.676069	14.417000
22.871864	-0.662961	14.463000
22.949306	-0.649610	14.509000
23.026194	-0.637048	14.554000
23.102840	-0.628432	14.600000
23.179033	-0.624081	14.646000
23.437086	-0.617877	14.692000
23.513947	-0.606642	14.848000
23.775734	-0.589773	14.894000
23.852822	-0.531542	15.050000
23.929592	-0.511337	15.096000
24.005535	-0.485106	15.142000
24.079444	-0.458384	15.187000
24.154225	-0.436343	15.233000
24.231104	-0.416777	15.279000
24.308636	-0.404853	15.325000
24.386521	-0.404111	15.370000
24.463369	-0.413606	15.416000
24.539660	-0.416908	15.462000
24.614003	-0.392722	15.508000
24.690167	-0.345480	15.554000
24.766143	-0.289534	15.600000
24.843016	-0.239171	15.645000
24.920688	-0.195294	15.691000
24.997696	-0.158240	15.737000
25.270718	-0.094836	15.783000
25.348217	-0.104956	15.948000
25.609712	-0.118650	15.994000
25.685248	-0.199338	16.150000
25.760559	-0.228516	16.196000
25.836164	-0.260013	16.242000
25.912703	-0.279945	16.287000
25.989834	-0.289302	16.333000
26.067304	-0.301501	16.379000
26.143814	-0.327886	16.425000
26.221077	-0.362778	16.471000
26.296117	-0.389018	16.517000
26.371290	-0.400075	16.563000
26.447963	-0.410479	16.608000
26.524915	-0.412081	16.654000
26.602184	-0.385963	16.701000
26.679764	-0.345944	16.746000
26.756131	-0.306118	16.792000
26.831825	-0.251599	16.837000
27.105433	-0.134205	16.883000
27.182527	-0.164676	17.048000
27.440841	-0.213076	17.093000
27.515902	-0.250578	17.250000
27.592649	-0.221702	17.296000
27.669514	-0.213187	17.341000
27.747142	-0.222828	17.387000
27.824011	-0.234972	17.433000
27.900079	-0.241058	17.479000
27.974132	-0.239444	17.524000
28.049211	-0.218073	17.570000
28.126247	-0.180413	17.616000
28.203549	-0.130076	17.662000
28.280600	-0.087021	17.708000
28.358384	-0.063262	17.753000
28.435234	-0.058242	17.799000
28.510881	-0.066846	17.845000
28.585334	-0.084632	17.891000
28.661187	-0.103900	17.937000
29.612983	-0.261586	17.983000
29.690182	-0.117528	18.552000
29.765630	-0.142291	18.598000
29.839833	-0.170914	18.644000
29.915601	-0.199216	18.689000
29.992442	-0.225149	18.735000
30.069576	-0.247192	18.781000
30.146979	-0.251144	18.827000
30.223729	-0.215176	18.872000
30.299132	-0.160144	18.918000
30.373324	-0.105349	18.964000
30.449286	-0.038650	19.010000
30.525299	0.037598	19.055000
30.786496	0.220988	19.101000
30.863213	0.251061	19.257000
31.119852	0.279020	19.302000
31.195511	0.345424	19.458000
31.272740	0.367132	19.503000
31.349620	0.400903	19.549000
31.426430	0.446467	19.595000
31.503203	0.499938	19.641000
31.579185	0.552065	19.686000
31.653000	0.600013	19.732000
31.729195	0.631530	19.778000
31.805050	0.652488	19.824000
31.882449	0.672174	19.869000
31.959596	0.689199	19.915000
32.036690	0.702874	19.961000
32.112134	0.710661	20.007000
32.186032	0.712711	20.052000
32.261814	0.710082	20.098000
32.338479	0.705104	20.143000
32.603170	0.631309	20.189000
32.681407	0.577018	20.348000
32.942691	0.527954	20.394000
33.018492	0.440284	20.550000
33.092902	0.432824	20.595000
33.169099	0.436579	20.642000
33.245788	0.454497	20.688000
33.322903	0.495151	20.733000
33.400341	0.562030	20.779000
33.476891	0.641884	20.825000
33.552922	0.722807	20.871000
33.628017	0.798649	20.917000
33.703076	0.864501	20.962000
33.779892	0.913375	21.008000
33.856769	0.945623	21.054000
33.934210	0.960909	21.100000
34.011229	0.964746	21.145000
34.087810	0.958143	21.191000
34.161633	0.953284	21.237000
34.438233	0.940243	21.283000
34.515214	0.918430	21.448000
34.773501	0.888718	21.494000
34.849148	0.713095	21.650000
34.925895	0.664521	21.696000
35.002894	0.631551	21.742000
35.080320	0.613566	21.787000
35.157282	0.611623	21.834000
35.234186	0.619164	21.879000
35.308704	0.637785	21.925000
35.384071	0.659503	21.971000
35.460267	0.682194	22.016000
35.537210	0.702217	22.062000
35.614374	0.719480	22.108000
35.691958	0.733017	22.154000
35.768143	0.744289	22.200000
35.843729	0.752178	22.246000
35.917955	0.758574	22.291000
35.994018	0.764842	22.337000
36.271633	0.805280	22.383000
36.346435	0.814968	22.548000
36.607211	0.821950	22.594000
36.683716	0.840841	22.750000
36.761388	0.840982	22.796000
36.838499	0.837675	22.842000
36.914650	0.833008	22.887000
36.990485	0.828432	22.934000
37.065395	0.821163	22.980000
37.141173	0.811243	23.025000
37.217639	0.801329	23.071000
37.294297	0.805165	23.117000
37.371592	0.822580	23.162000
37.447689	0.822791	23.208000
37.523175	0.808215	23.253000
37.598274	0.791057	23.300000
37.674171	0.780290	23.345000
37.751178	0.762773	23.391000
37.827675	0.722524	23.437000
38.778633	0.530462	23.483000
38.854096	0.391729	24.053000
38.928633	0.390767	24.098000
39.005821	0.397510	24.144000
39.082533	0.424613	24.190000
39.159990	0.430495	24.236000
39.237036	0.412648	24.282000
39.313198	0.406074	24.327000
39.387758	0.410761	24.373000
39.463037	0.405318	24.419000
39.540021	0.391196	24.465000
39.616660	0.355429	24.510000
39.693656	0.333791	24.556000
39.955185	0.231572	24.601000
40.030625	0.243934	24.758000
40.288924	0.260621	24.804000
40.365559	0.312081	24.960000
40.442747	0.315927	25.006000
40.520338	0.308503	25.052000
40.596911	0.288918	25.098000
40.673108	0.261757	25.143000
40.747031	0.229982	25.189000
40.822693	0.186795	25.235000
40.899125	0.139954	25.281000
40.975875	0.093947	25.326000
41.053170	0.061297	25.372000
41.130858	0.038894	25.418000
41.206732	0.030239	25.464000
41.282206	0.034115	25.510000
41.356698	0.049453	25.555000
41.433474	0.075491	25.601000
41.509744	0.104627	25.647000
41.771262	0.197693	25.693000
41.848254	0.217177	25.848000
42.105477	0.236337	25.894000
42.181278	0.307499	26.050000
42.258486	0.345725	26.096000
42.335385	0.389684	26.141000
42.413472	0.436640	26.187000
42.489838	0.479672	26.233000
42.565440	0.519147	26.279000
42.640691	0.561289	26.325000
42.715993	0.607687	26.371000
42.792858	0.661247	26.416000
42.870112	0.718764	26.462000
42.947085	0.776224	26.508000
43.024223	0.833320	26.554000
43.100562	0.879006	26.600000
43.175940	0.892916	26.646000
43.250892	0.870841	26.691000
43.326743	0.823402	26.737000
43.604289	0.638203	26.783000
43.678396	0.628815	26.948000
43.938811	0.628997	26.994000
44.016268	0.669003	27.150000
44.093710	0.682759	27.196000
44.170402	0.664703	27.242000
44.246749	0.609135	27.287000
44.322619	0.537720	27.334000
44.397679	0.472212	27.380000
44.473780	0.423679	27.425000
44.550637	0.399769	27.471000
44.627814	0.424370	27.517000
44.705082	0.484847	27.563000
44.781882	0.555185	27.609000
44.857434	0.620057	27.654000
44.931725	0.681870	27.700000
45.007749	0.739402	27.746000
45.084472	0.787816	27.792000
45.161434	0.834999	27.837000
45.434484	1.005081	27.883000
45.511111	1.035972	28.048000
45.772852	1.062138	28.094000
45.850401	1.180777	28.250000
45.926786	1.206181	28.296000
46.002226	1.218748	28.342000
46.077348	1.212577	28.387000
46.154309	1.213066	28.434000
46.230352	1.231847	28.479000
46.307675	1.249988	28.525000
46.384878	1.256343	28.571000
46.461052	1.254746	28.617000
46.536423	1.251223	28.662000
46.611302	1.246574	28.708000
46.686730	1.239356	28.754000
46.763703	1.224332	28.800000
46.840960	1.203748	28.845000
46.918651	1.172321	28.891000
46.995206	1.126556	28.937000
47.941419	1.180277	28.983000
48.019456	1.278516	29.553000
48.095838	1.255930	29.598000
48.173137	1.232431	29.644000
48.250475	1.212884	29.690000
48.326349	1.201689	29.736000
48.401751	1.193063	29.782000
48.476491	1.179388	29.828000
48.552300	1.161393	29.873000
48.629553	1.149508	29.919000
48.706484	1.144662	29.965000
48.783576	1.142799	30.011000
48.860138	1.146892	30.056000
49.116204	1.204804	30.102000
49.192490	1.199554	30.257000
49.454507	1.190327	30.303000
49.531733	1.199817	30.459000
49.608345	1.200554	30.505000
49.684077	1.236636	30.551000
49.759091	1.196258	30.597000
49.834073	1.164726	30.642000
49.911188	1.146196	30.688000
49.987996	1.130176	30.734000
50.064981	1.139312	30.780000
50.142161	1.158593	30.825000
50.217620	1.190569	30.871000
50.292299	1.230103	30.917000
50.367774	1.262104	30.963000
50.443929	1.276530	31.008000
50.521735	1.281146	31.054000
50.599300	1.281268	31.100000
50.676130	1.275743	31.146000
50.936296	1.246887	31.192000
51.011037	1.238606	31.348000
51.271456	1.221146	31.394000
51.348825	1.289548	31.550000
51.425286	1.318767	31.596000
51.502159	1.338545	31.642000
51.578598	1.350737	31.688000
51.654100	1.365882	31.734000
51.728814	1.377939	31.780000
51.805621	1.388408	31.825000
51.882863	1.396658	31.871000
51.959636	1.412622	31.917000
52.037055	1.452406	31.963000
52.113302	1.507030	32.008000
52.188077	1.564957	32.054000
52.263552	1.622423	32.100000
52.339241	1.676674	32.146000
52.416414	1.722223	32.191000
52.493794	1.755080	32.237000
52.767602	1.778478	32.283000
52.844283	1.769752	32.448000
53.105820	1.769073	32.494000
53.182677	1.822364	32.650000
53.259124	1.843573	32.696000
53.334456	1.851723	32.742000
53.408847	1.847237	32.788000
53.486128	1.839959	32.834000
53.562782	1.835463	32.880000
53.640162	1.832141	32.925000
53.716923	1.828588	32.971000
53.793616	1.819773	33.017000
53.868184	1.798885	33.062000
53.942878	1.774712	33.108000
54.019440	1.750453	33.154000
54.095990	1.725989	33.200000
54.173774	1.711226	33.246000
54.250989	1.715107	33.292000
54.327508	1.732394	33.337000
54.601862	1.776190	33.383000
54.678681	1.773458	33.549000
54.939684	1.769915	33.594000
55.014824	1.805691	33.750000
55.090045	1.820735	33.796000
55.166150	1.840709	33.842000
55.243265	1.882352	33.888000
55.320576	1.934817	33.933000
55.397941	1.986358	33.980000
55.475086	2.027622	34.026000
55.550972	2.061727	34.071000
55.625064	2.094676	34.117000
55.700938	2.127973	34.163000
55.778060	2.149692	34.209000
55.854541	2.163517	34.254000
55.932071	2.172257	34.300000
56.008675	2.181526	34.346000
56.084146	2.194282	34.392000
56.158365	2.214428	34.437000
57.108478	2.352840	34.483000
57.185819	2.211746	35.053000
57.262765	2.180536	35.098000
57.339404	2.166324	35.144000
57.413011	2.165321	35.190000
57.488010	2.175200	35.236000
57.564875	2.196318	35.282000
57.641663	2.218702	35.327000
57.718947	2.242603	35.373000
57.796447	2.273016	35.419000
57.872951	2.283410	35.464000
57.947246	2.246207	35.510000
58.021883	2.194202	35.556000
58.282387	2.125392	35.602000
58.359840	2.095156	35.757000
58.619452	2.075078	35.803000
58.693432	2.137489	35.958000
58.768654	2.176697	36.004000
58.845196	2.218406	36.050000
58.921800	2.252840	36.095000
58.999299	2.275284	36.141000
59.076330	2.285870	36.187000
59.152365	2.289852	36.232000
59.226737	2.283167	36.278000
59.302327	2.259781	36.324000
59.378843	2.219206	36.370000
59.454990	2.175654	36.415000
59.532427	2.158448	36.461000
59.609389	2.138471	36.506000
59.685086	2.114320	36.552000
59.760261	2.119989	36.598000
59.834875	2.164410	36.644000
60.099332	2.281408	36.689000
60.176082	2.273943	36.849000
60.437147	2.270109	36.894000
60.513551	2.318805	37.049000
60.588734	2.375367	37.095000
60.663482	2.443748	37.141000
60.739053	2.509287	37.187000
60.816756	2.561963	37.232000
60.893490	2.597160	37.278000
60.970905	2.616019	37.324000
61.047728	2.623166	37.369000
61.122492	2.625768	37.415000
61.196591	2.626710	37.461000
61.272550	2.625414	37.506000
61.348992	2.613197	37.552000
61.425812	2.600450	37.598000
61.502992	2.588223	37.644000
61.579139	2.575425	37.689000
61.655082	2.574604	37.735000
61.934018	2.609704	37.781000
62.011583	2.578697	37.949000
62.270189	2.539347	37.994000
62.345168	2.479863	38.149000
62.420247	2.483673	38.195000
62.496563	2.478005	38.241000
62.573751	2.466632	38.286000
62.650639	2.456412	38.332000
62.727308	2.444954	38.378000
62.802237	2.435661	38.423000
62.877024	2.430589	38.469000
62.953279	2.432254	38.515000
63.029783	2.442178	38.560000
63.106675	2.456148	38.606000
63.183809	2.469429	38.652000
63.259853	2.481281	38.697000
63.334613	2.476001	38.743000
63.409365	2.449669	38.789000
63.486315	2.407108	38.834000
63.769001	2.311971	38.880000
63.845424	2.331206	39.049000
64.103542	2.345794	39.095000
64.178940	2.397447	39.251000
64.255874	2.411539	39.296000
64.332912	2.436136	39.342000
64.409559	2.478218	39.387000
64.485940	2.521010	39.433000
64.560884	2.550270	39.479000
64.635414	2.565037	39.524000
64.712663	2.561051	39.570000
64.789367	2.548722	39.616000
64.866532	2.528636	39.662000
64.943743	2.506090	39.707000
65.020102	2.488832	39.753000
65.094524	2.474215	39.799000
65.169353	2.463863	39.845000
65.246103	2.454862	39.890000
65.322054	2.452692	39.936000
66.276393	2.337895	39.981000
66.352636	2.443354	40.553000
66.427196	2.464220	40.599000
66.501933	2.480478	40.644000
66.578606	2.495454	40.690000
66.655879	2.509448	40.736000
66.733236	2.523349	40.782000
66.810016	2.532956	40.828000
66.886574	2.542422	40.873000
66.961258	2.552315	40.919000
67.036117	2.556463	40.965000
67.112084	2.558248	41.010000
67.188673	2.556685	41.056000
67.449779	2.504905	41.102000
67.527098	2.474104	41.258000
67.784186	2.435212	41.303000
67.860429	2.304571	41.460000
67.937256	2.279856	41.506000
68.014214	2.261647	41.551000
68.091786	2.250285	41.597000
68.168582	2.245185	41.642000
68.243596	2.244801	41.688000
68.317833	2.253244	41.734000
68.393554	2.271203	41.780000
68.470795	2.296015	41.825000
68.547745	2.322455	41.871000
68.624757	2.344668	41.917000
68.701468	2.364419	41.962000
68.776920	2.388577	42.008000
68.851272	2.411014	42.054000
68.927231	2.432719	42.099000
69.003105	2.455296	42.145000
69.267408	2.559044	42.191000
69.344297	2.598630	42.349000
69.605350	2.643312	42.394000
69.679534	2.781721	42.551000
69.755124	2.821431	42.597000
69.831920	2.863295	42.643000
69.908839	2.909596	42.688000
69.986188	2.963534	42.734000
70.063084	3.023231	42.780000
70.139166	3.085216	42.826000
70.213757	3.141486	42.871000
70.288440	3.191806	42.917000
70.365198	3.235068	42.963000
70.441694	3.274474	43.008000
70.518621	3.314451	43.054000
70.595755	3.357295	43.100000
70.671744	3.399473	43.146000
70.746858	3.441334	43.191000
70.821994	3.479846	43.237000
71.101119	3.705153	43.283000
71.176478	3.801086	43.449000
71.433229	3.900561	43.494000
71.509948	4.171028	43.650000
71.586882	4.218949	43.695000
71.664101	4.258256	43.742000
71.741297	4.289936	43.787000
71.817640	4.318734	43.833000
71.892776	4.344792	43.879000
71.967690	4.365821	43.924000
72.044279	4.375820	43.970000
72.120668	4.377716	44.016000
72.198063	4.382161	44.062000
72.275789	4.402408	44.107000
72.351924	4.429873	44.153000
72.426945	4.469693	44.199000
72.501560	4.513237	44.244000
72.577795	4.536738	44.290000
72.654791	4.565631	44.336000
72.932724	4.823697	44.382000
73.007454	4.908088	44.549000
73.268998	4.994200	44.595000
73.346740	5.223992	44.751000
73.422906	5.310131	44.797000
73.499502	5.423409	44.842000
73.575123	5.550917	44.888000
73.650520	5.674475	44.934000
73.726640	5.774194	44.979000
73.803206	5.875211	45.025000
73.879764	6.000209	45.071000
73.957498	6.141030	45.117000
74.033126	6.290671	45.162000
74.108716	6.505313	45.208000
74.183491	6.733272	45.254000
74.259342	6.934234	45.300000
74.335708	7.096983	45.345000
74.412973	7.233070	45.391000
74.489877	7.374952	45.437000
75.440097	8.436238	45.483000
75.514757	9.230038	46.053000
75.591991	9.435282	46.099000
75.668288	9.642110	46.145000
75.745361	9.825651	46.191000
75.822603	9.993021	46.237000
75.899107	10.195999	46.283000
75.974689	10.411839	46.328000
76.049610	10.620054	46.374000
76.125316	10.820548	46.420000
76.202918	11.021114	46.465000
76.280030	11.224492	46.512000
76.357102	11.434800	46.558000
76.616227	12.174619	46.604000
76.691148	12.375537	46.759000
76.951441	12.564508	46.805000
77.027860	13.205887	46.961000
77.105425	13.399791	47.007000
77.182206	13.599752	47.053000
77.259025	13.813505	47.098000
77.334668	14.054487	47.144000
77.409090	14.327161	47.190000
77.485840	14.621525	47.236000
77.562260	14.919337	47.281000
77.638687	15.210304	47.327000
77.716452	15.496699	47.373000
77.793087	15.788083	47.419000
77.869391	16.083554	47.465000
77.943874	16.387859	47.511000
78.019702	16.704220	47.556000
78.096545	17.030898	47.602000
78.173617	17.377001	47.648000
78.435961	18.626756	47.694000
78.512688	18.971320	47.850000
78.770291	19.321225	47.896000
78.846081	20.531749	48.052000
78.923269	20.925418	48.098000
79.000111	21.339252	48.144000
79.077015	21.746889	48.190000
79.153319	22.162207	48.236000
79.230323	22.591291	48.281000
79.303992	23.028405	48.327000
79.379275	23.476445	48.373000
79.455978	23.937592	48.418000
79.532790	24.401438	48.464000
79.609932	24.869131	48.510000
79.686597	25.317001	48.555000
79.762472	25.757851	48.601000
79.837147	26.252094	48.647000
79.912468	26.765454	48.692000
79.990178	27.290127	48.738000
80.266222	29.256895	48.784000
80.341750	29.835291	48.949000
80.601574	30.406748	48.995000
80.678993	32.319559	49.151000
80.757056	32.894330	49.197000
80.833768	33.468397	49.243000
80.909028	34.042094	49.289000
80.983718	34.617717	49.334000
81.059593	35.198318	49.380000
81.136174	35.789716	49.426000
81.213285	36.381740	49.471000
81.289943	36.990215	49.517000
81.367061	37.614552	49.563000
81.442052	38.255325	49.609000
81.516466	38.911984	49.655000
81.592909	39.581311	49.700000
81.670020	40.266007	49.746000
81.746678	40.965676	49.792000
81.823543	41.670007	49.838000
82.097566	44.318881	49.883000
82.175154	45.084211	50.049000
82.436429	45.868427	50.095000
82.513080	48.468281	50.251000
