Sample	2mm tape 
date	07/01/2025
	
Temperature (K)	77.00
Angle (deg.)	0.000000
field / T	0.050000
	
		
Approx. trace time (s)	120.0	
		
Current / A	V1  -sample/ uV	time/s
-0.022499	-1.958965	0.000000
-0.023270	-1.963427	0.046000
-0.022660	-1.919863	0.092000
-0.022182	-1.935923	0.268000
-0.022815	-1.943252	0.314000
-0.023270	-1.865504	0.470000
-0.022457	-1.848388	0.515000
-0.022039	-1.842235	0.561000
-0.022636	-1.837925	0.607000
-0.022553	-1.841029	0.653000
-0.021896	-1.841575	0.699000
-0.016915	-1.827351	0.745000
-0.001475	-1.803236	0.791000
0.022461	-1.796359	0.836000
0.046710	-1.805141	0.882000
0.067531	-1.820995	0.928000
0.087235	-1.838667	0.974000
0.108143	-1.875923	1.019000
0.128069	-1.919276	1.065000
0.149363	-1.934241	1.111000
0.170786	-1.924577	1.157000
0.246097	-1.862704	1.202000
0.267115	-1.883317	1.368000
0.339126	-1.929952	1.414000
0.360492	-2.055626	1.569000
0.381218	-2.084658	1.615000
0.401873	-2.114148	1.661000
0.422123	-2.131773	1.707000
0.443208	-2.144091	1.753000
0.465083	-2.169786	1.799000
0.486026	-2.201187	1.844000
0.506996	-2.231539	1.890000
0.527918	-2.250096	1.936000
0.548067	-2.256960	1.982000
0.570285	-2.265415	2.028000
0.590414	-2.282642	2.073000
0.610937	-2.308363	2.119000
0.632082	-2.332925	2.165000
0.654358	-2.354125	2.210000
0.674148	-2.372578	2.256000
0.749438	-2.465067	2.302000
0.770700	-2.486815	2.468000
0.842173	-2.499501	2.514000
0.863782	-2.469824	2.669000
0.884825	-2.438323	2.715000
0.905049	-2.394021	2.761000
0.926191	-2.330220	2.807000
0.948204	-2.295019	2.853000
0.969516	-2.326792	2.899000
0.991122	-2.370256	2.945000
1.011417	-2.359783	2.991000
1.032399	-2.309141	3.037000
1.053516	-2.243144	3.083000
1.073393	-2.184150	3.129000
1.094380	-2.137565	3.174000
1.116501	-2.097849	3.220000
1.136742	-2.083595	3.266000
1.157906	-2.103387	3.312000
1.178928	-2.154418	3.358000
1.254152	-2.365734	3.403000
1.275331	-2.384224	3.568000
1.346719	-2.394545	3.614000
1.367431	-2.438322	3.770000
1.387739	-2.464449	3.815000
1.409907	-2.484072	3.861000
1.430157	-2.494091	3.907000
1.451320	-2.498839	3.953000
1.472908	-2.480222	3.999000
1.493644	-2.432523	4.045000
1.513682	-2.365764	4.091000
1.535297	-2.304925	4.136000
1.556540	-2.244694	4.182000
1.577534	-2.203405	4.228000
1.599077	-2.187015	4.274000
1.619515	-2.179524	4.320000
1.640033	-2.182513	4.365000
1.660932	-2.204207	4.411000
1.682540	-2.235550	4.457000
1.948532	-2.147615	4.503000
1.969181	-2.145887	5.082000
1.989226	-2.108509	5.127000
2.011079	-2.063746	5.174000
2.032634	-2.034850	5.219000
2.053933	-2.037597	5.265000
2.074739	-2.036196	5.311000
2.094341	-2.014635	5.357000
2.115509	-1.979120	5.402000
2.136605	-1.935742	5.448000
2.157421	-1.867867	5.494000
2.178943	-1.781259	5.540000
2.199499	-1.682199	5.585000
2.271923	-1.475767	5.631000
2.292995	-1.442190	5.787000
2.363583	-1.409830	5.833000
2.384568	-1.376018	5.988000
2.407089	-1.376140	6.034000
2.426919	-1.374406	6.080000
2.447247	-1.373405	6.126000
2.468757	-1.374965	6.172000
2.489818	-1.385794	6.218000
2.510297	-1.399428	6.263000
2.532044	-1.406313	6.309000
2.553300	-1.408257	6.355000
2.574346	-1.411940	6.401000
2.594593	-1.428300	6.447000
2.614555	-1.460093	6.492000
2.635695	-1.511150	6.538000
2.657063	-1.568137	6.584000
2.677687	-1.619730	6.630000
2.699595	-1.664709	6.675000
2.771303	-1.801405	6.721000
2.792423	-1.808058	6.877000
2.863752	-1.792291	6.923000
2.884274	-1.668937	7.078000
2.905654	-1.638141	7.124000
2.926883	-1.614755	7.170000
2.947574	-1.597809	7.216000
2.968518	-1.575445	7.261000
2.989220	-1.546159	7.307000
3.010312	-1.504522	7.353000
3.031364	-1.459699	7.399000
3.052323	-1.425493	7.445000
3.074016	-1.406079	7.490000
3.094989	-1.408877	7.536000
3.115678	-1.431383	7.582000
3.136302	-1.463450	7.628000
3.156757	-1.488441	7.673000
3.176754	-1.502119	7.719000
3.198809	-1.498884	7.765000
3.271417	-1.446885	7.810000
3.292137	-1.442069	7.968000
3.362893	-1.445890	8.014000
3.384281	-1.524838	8.170000
3.405247	-1.578317	8.216000
3.426494	-1.628162	8.261000
3.447741	-1.674940	8.307000
3.468805	-1.723664	8.353000
3.489914	-1.773239	8.399000
3.510347	-1.821889	8.445000
3.531538	-1.863061	8.491000
3.551869	-1.899172	8.537000
3.572983	-1.925814	8.582000
3.595270	-1.951172	8.628000
3.615900	-1.974844	8.674000
3.636124	-1.993374	8.720000
3.657385	-2.003554	8.765000
3.677496	-2.013266	8.811000
3.698827	-2.038191	8.856000
3.775621	-2.253952	8.902000
3.796641	-2.321003	9.068000
3.866722	-2.378762	9.114000
3.888587	-2.456125	9.270000
3.909775	-2.437470	9.316000
3.931016	-2.417905	9.361000
3.951599	-2.380211	9.407000
3.971796	-2.320478	9.453000
3.992982	-2.249197	9.499000
4.014181	-2.171587	9.544000
4.034948	-2.078746	9.590000
4.056476	-1.975754	9.635000
4.077392	-1.890929	9.682000
4.098228	-1.839682	9.727000
4.119342	-1.820683	9.773000
4.139787	-1.824161	9.819000
4.160810	-1.836265	9.865000
4.182646	-1.845966	9.910000
4.204030	-1.841812	9.956000
4.469975	-1.679930	10.002000
4.490858	-1.597224	10.582000
4.512781	-1.636015	10.628000
4.533884	-1.666618	10.674000
4.554344	-1.687283	10.720000
4.575547	-1.708714	10.765000
4.595723	-1.721994	10.811000
4.616983	-1.720347	10.857000
4.638144	-1.709490	10.903000
4.659078	-1.710301	10.949000
4.680846	-1.693216	10.994000
4.701722	-1.659889	11.040000
4.721801	-1.637929	11.086000
4.793088	-1.517142	11.132000
4.814555	-1.468134	11.288000
4.886970	-1.434497	11.334000
4.907552	-1.303276	11.489000
4.928360	-1.254533	11.535000
4.948745	-1.218808	11.581000
4.969173	-1.205174	11.627000
4.990248	-1.224922	11.672000
5.011513	-1.276524	11.718000
5.032760	-1.344611	11.764000
5.054292	-1.410195	11.810000
5.075172	-1.459751	11.856000
5.095867	-1.492071	11.901000
5.116888	-1.517803	11.947000
5.136909	-1.533637	11.993000
5.158339	-1.535342	12.039000
5.179405	-1.527413	12.084000
5.200908	-1.514567	12.130000
5.222185	-1.501570	12.176000
5.292890	-1.437456	12.222000
5.313935	-1.396153	12.377000
5.385151	-1.363976	12.423000
5.406594	-1.300172	12.578000
5.427545	-1.310131	12.624000
5.447873	-1.326340	12.670000
5.469125	-1.343831	12.716000
5.489404	-1.353927	12.762000
5.510275	-1.345423	12.807000
5.532007	-1.326179	12.853000
5.553367	-1.321175	12.899000
5.574660	-1.307802	12.945000
5.595552	-1.286603	12.991000
5.616373	-1.282192	13.037000
5.637234	-1.298367	13.083000
5.658150	-1.324889	13.128000
5.679334	-1.358824	13.174000
5.701166	-1.399600	13.220000
5.721737	-1.448494	13.265000
5.793334	-1.661468	13.311000
5.814395	-1.701507	13.469000
5.885827	-1.705645	13.514000
5.907190	-1.596383	13.670000
5.928508	-1.563189	13.716000
5.949331	-1.531965	13.762000
5.969830	-1.514971	13.807000
5.990743	-1.513027	13.853000
6.011111	-1.516333	13.899000
6.032210	-1.521815	13.944000
6.053772	-1.525485	13.990000
6.074594	-1.529114	14.036000
6.095332	-1.524511	14.082000
6.116402	-1.505768	14.127000
6.137011	-1.478485	14.173000
6.157892	-1.447096	14.219000
6.178563	-1.414929	14.265000
6.199867	-1.384698	14.310000
6.221508	-1.354732	14.356000
6.298094	-1.275319	14.402000
6.318115	-1.261690	14.569000
6.390398	-1.257712	14.615000
6.411761	-1.074333	14.770000
6.432212	-1.023766	14.816000
6.452851	-1.009360	14.861000
6.473976	-0.999189	14.907000
6.494798	-1.000134	14.953000
6.515676	-1.019924	14.999000
6.537671	-1.058448	15.045000
6.558684	-1.096537	15.090000
6.579618	-1.108479	15.136000
6.600494	-1.119357	15.182000
6.621595	-1.152296	15.227000
6.642568	-1.217471	15.274000
6.663389	-1.311233	15.320000
6.684641	-1.422489	15.365000
6.705065	-1.525676	15.411000
6.725928	-1.610445	15.457000
6.992693	-1.663987	15.502000
7.013294	-1.597718	16.082000
7.034130	-1.569655	16.128000
7.054594	-1.540046	16.174000
7.075858	-1.512316	16.220000
7.096690	-1.488349	16.266000
7.117713	-1.471925	16.312000
7.139023	-1.466826	16.357000
7.160285	-1.471723	16.403000
7.180800	-1.484499	16.449000
7.201585	-1.502341	16.494000
7.222604	-1.512784	16.540000
7.243150	-1.507066	16.586000
7.315226	-1.466564	16.632000
7.336646	-1.451013	16.789000
7.407583	-1.429914	16.834000
7.428285	-1.317682	16.990000
7.449297	-1.271847	17.036000
7.470138	-1.213576	17.082000
7.490833	-1.168350	17.128000
7.511973	-1.145645	17.173000
7.533724	-1.137871	17.219000
7.554714	-1.134272	17.265000
7.575882	-1.132193	17.311000
7.596051	-1.116298	17.357000
7.617040	-1.092807	17.402000
7.638266	-1.086114	17.448000
7.659581	-1.085761	17.494000
7.680881	-1.055642	17.540000
7.701736	-1.020986	17.585000
7.722091	-1.012480	17.631000
7.742589	-1.028208	17.677000
7.813916	-1.090333	17.723000
7.834839	-1.098606	17.879000
7.906791	-1.123849	17.924000
7.928063	-1.257360	18.080000
7.948747	-1.294188	18.126000
7.969203	-1.334021	18.171000
7.990797	-1.374793	18.217000
8.012307	-1.416084	18.263000
8.033888	-1.456883	18.309000
8.054743	-1.491353	18.354000
8.075140	-1.520831	18.400000
8.096214	-1.544716	18.446000
8.115972	-1.564315	18.492000
8.137234	-1.578640	18.538000
8.158436	-1.591253	18.584000
8.179603	-1.607133	18.630000
8.200759	-1.623107	18.675000
8.221834	-1.636856	18.721000
8.242809	-1.652011	18.767000
8.313695	-1.700232	18.813000
8.335127	-1.733068	18.969000
8.407055	-1.777136	19.015000
8.427993	-1.908071	19.170000
8.448843	-1.927439	19.216000
8.469235	-1.940637	19.261000
8.489874	-1.950460	19.308000
8.510836	-1.958995	19.353000
8.532171	-1.964340	19.399000
8.553499	-1.967778	19.445000
8.574244	-1.967778	19.490000
8.595442	-1.962696	19.536000
8.616224	-1.951990	19.582000
8.637296	-1.938195	19.628000
8.657757	-1.921942	19.673000
8.678898	-1.901544	19.719000
8.699528	-1.880112	19.765000
8.720683	-1.851432	19.810000
8.741705	-1.807721	19.856000
8.817918	-1.581184	19.902000
8.839941	-1.525698	20.069000
8.910474	-1.481272	20.115000
8.931298	-1.379602	20.270000
8.952304	-1.356214	20.316000
8.972855	-1.333690	20.362000
8.993935	-1.299723	20.408000
9.015298	-1.251769	20.454000
9.036419	-1.210214	20.499000
9.057561	-1.182220	20.545000
9.078054	-1.160307	20.591000
9.099396	-1.140950	20.637000
9.119540	-1.140051	20.682000
9.140271	-1.154038	20.728000
9.161277	-1.165375	20.774000
9.182449	-1.170113	20.819000
9.203496	-1.178183	20.865000
9.224608	-1.181046	20.910000
9.244885	-1.170760	20.956000
9.512019	-1.247284	21.002000
9.532775	-1.362629	21.583000
9.553508	-1.370872	21.628000
9.574589	-1.375620	21.674000
9.595238	-1.375006	21.720000
9.616485	-1.367307	21.766000
9.638003	-1.347232	21.812000
9.658381	-1.319949	21.857000
9.679314	-1.288769	21.903000
9.699954	-1.263725	21.949000
9.720369	-1.252703	21.994000
9.741965	-1.257400	22.040000
9.763130	-1.278423	22.086000
9.835258	-1.358774	22.132000
9.855434	-1.364495	22.288000
9.927286	-1.364364	22.334000
9.948028	-1.360110	22.489000
9.968915	-1.357419	22.535000
9.989921	-1.351920	22.581000
10.010932	-1.350282	22.626000
10.032123	-1.347569	22.672000
10.052479	-1.343246	22.718000
10.073151	-1.342292	22.764000
10.094508	-1.324313	22.809000
10.114954	-1.287767	22.856000
10.136395	-1.255798	22.901000
10.157935	-1.231464	22.947000
10.178546	-1.205517	22.993000
10.198761	-1.161857	23.039000
10.219928	-1.097238	23.084000
10.240839	-1.015715	23.130000
10.261838	-0.921755	23.176000
10.334762	-0.666625	23.222000
10.355734	-0.644412	23.378000
10.425731	-0.637193	23.424000
10.446821	-0.639586	23.579000
10.467871	-0.646349	23.625000
10.489015	-0.657540	23.671000
10.510217	-0.667296	23.717000
10.531065	-0.674625	23.762000
10.551750	-0.680188	23.808000
10.572896	-0.681384	23.854000
10.594103	-0.682176	23.900000
10.614913	-0.682126	23.946000
10.635932	-0.692417	23.991000
10.656987	-0.715288	24.037000
10.678523	-0.743733	24.083000
10.698664	-0.768728	24.128000
10.719661	-0.781726	24.174000
10.740285	-0.781736	24.220000
10.761297	-0.770866	24.266000
10.833737	-0.742558	24.312000
10.855620	-0.742358	24.469000
10.926103	-0.741323	24.515000
10.946727	-0.720457	24.670000
10.967707	-0.700474	24.716000
10.988276	-0.688178	24.762000
11.009089	-0.685645	24.808000
11.031103	-0.692721	24.854000
11.052164	-0.706642	24.900000
11.072877	-0.728336	24.945000
11.093474	-0.755638	24.991000
11.114430	-0.789574	25.037000
11.135233	-0.826252	25.083000
11.156233	-0.869306	25.129000
11.177353	-0.911245	25.175000
11.198503	-0.951299	25.220000
11.219794	-0.985850	25.266000
11.240304	-1.008154	25.312000
11.260803	-1.015736	25.357000
11.338289	-0.954541	25.403000
11.359210	-0.961789	25.569000
11.428845	-0.988778	25.615000
11.450082	-1.096638	25.770000
11.470914	-1.115526	25.816000
11.492146	-1.146629	25.862000
11.514652	-1.185180	25.908000
11.535280	-1.226595	25.954000
11.555932	-1.271348	26.000000
11.576602	-1.314476	26.045000
11.597635	-1.350958	26.091000
11.618425	-1.379724	26.137000
11.639491	-1.395178	26.183000
11.660905	-1.390393	26.229000
11.682175	-1.367651	26.274000
11.702690	-1.344249	26.320000
11.723432	-1.332817	26.366000
11.744509	-1.334642	26.412000
11.765353	-1.341522	26.458000
12.030693	-1.386733	26.503000
12.051399	-1.401861	27.083000
12.072228	-1.365670	27.129000
12.093672	-1.330246	27.174000
12.115227	-1.293437	27.220000
12.136043	-1.259941	27.266000
12.156813	-1.231251	27.312000
12.177778	-1.210495	27.358000
12.198742	-1.200058	27.404000
12.220303	-1.195768	27.449000
12.241575	-1.194429	27.495000
12.263029	-1.198177	27.541000
12.283586	-1.211011	27.586000
12.354569	-1.313956	27.632000
12.375830	-1.351294	27.788000
12.446608	-1.387141	27.834000
12.468173	-1.465580	27.990000
12.490152	-1.473651	28.036000
12.510344	-1.478708	28.082000
12.530754	-1.483929	28.128000
12.551503	-1.486402	28.173000
12.572958	-1.489900	28.219000
12.593804	-1.491827	28.265000
12.615267	-1.493033	28.310000
12.637096	-1.493685	28.356000
12.657476	-1.492589	28.402000
12.677869	-1.494362	28.448000
12.698720	-1.491989	28.494000
12.719182	-1.480319	28.539000
12.740615	-1.460285	28.585000
12.761758	-1.432974	28.631000
12.783098	-1.404586	28.677000
12.854330	-1.366264	28.722000
12.874837	-1.352570	28.878000
12.946842	-1.331865	28.924000
12.967452	-1.258615	29.081000
12.988903	-1.262057	29.126000
13.010520	-1.277616	29.172000
13.031369	-1.298836	29.218000
13.052030	-1.315273	29.264000
13.072693	-1.327228	29.310000
13.093681	-1.331552	29.355000
13.114928	-1.321225	29.401000
13.135847	-1.297081	29.447000
13.156503	-1.274618	29.493000
13.177801	-1.269346	29.538000
13.198333	-1.286674	29.584000
13.219523	-1.316986	29.630000
13.239741	-1.348639	29.676000
13.261161	-1.368158	29.722000
13.283244	-1.371695	29.767000
13.355054	-1.365801	29.813000
13.376289	-1.374082	29.970000
13.447088	-1.383876	30.016000
13.467759	-1.353517	30.172000
13.488545	-1.346350	30.218000
13.510157	-1.343165	30.263000
13.531515	-1.332958	30.309000
13.552509	-1.315261	30.355000
13.573298	-1.293205	30.401000
13.593649	-1.270761	30.447000
13.614796	-1.246558	30.492000
13.635613	-1.236292	30.538000
13.656854	-1.238993	30.584000
13.678383	-1.232608	30.630000
13.699490	-1.205038	30.676000
13.720736	-1.157924	30.722000
13.741098	-1.092594	30.767000
13.761373	-1.029097	30.813000
13.782509	-0.982644	30.859000
13.858457	-0.926997	30.905000
13.879208	-0.931361	31.070000
13.950557	-0.940512	31.116000
13.971791	-1.017296	31.272000
13.993341	-1.043921	31.318000
14.014817	-1.067227	31.363000
14.035606	-1.079189	31.409000
14.056470	-1.083783	31.455000
14.077170	-1.080682	31.501000
14.098155	-1.064177	31.547000
14.118713	-1.030162	31.593000
14.140367	-0.983669	31.638000
14.161585	-0.930328	31.684000
14.182449	-0.877395	31.730000
14.202908	-0.839774	31.776000
14.223849	-0.824176	31.821000
14.244767	-0.825067	31.867000
14.265823	-0.845058	31.913000
14.286913	-0.873131	31.959000
14.551697	-0.884002	32.005000
14.573091	-0.899919	32.583000
14.594479	-0.889803	32.629000
14.615655	-0.877087	32.675000
14.636093	-0.862864	32.721000
14.656752	-0.846951	32.767000
14.678016	-0.829744	32.812000
14.699264	-0.816948	32.858000
14.720268	-0.806338	32.904000
14.741959	-0.793539	32.949000
14.762170	-0.767856	32.995000
14.782983	-0.741939	33.041000
14.803928	-0.733824	33.087000
14.874720	-0.805637	33.132000
14.895721	-0.831131	33.288000
14.968323	-0.858281	33.334000
14.988690	-0.971554	33.491000
15.009104	-0.995035	33.537000
15.030556	-1.014428	33.582000
15.051467	-1.029066	33.628000
15.072763	-1.038758	33.674000
15.093753	-1.044648	33.720000
15.114801	-1.050367	33.765000
15.136072	-1.051452	33.811000
15.156751	-1.049200	33.857000
15.177377	-1.042194	33.903000
15.198392	-1.033043	33.949000
15.219088	-1.013222	33.994000
15.239508	-0.996106	34.040000
15.261491	-0.990165	34.086000
15.282682	-0.977567	34.132000
15.303285	-0.945282	34.177000
15.374716	-0.814599	34.223000
15.395436	-0.786504	34.379000
15.466877	-0.765194	34.425000
15.488792	-0.815723	34.581000
15.508769	-0.829896	34.626000
15.529555	-0.809242	34.672000
15.550463	-0.771868	34.718000
15.571428	-0.735393	34.764000
15.591806	-0.709054	34.810000
15.613950	-0.692700	34.856000
15.635693	-0.683444	34.901000
15.656516	-0.675281	34.947000
15.677125	-0.668235	34.993000
15.697200	-0.659912	35.039000
15.718523	-0.649176	35.084000
15.738836	-0.635063	35.130000
15.760267	-0.613034	35.176000
15.781779	-0.573962	35.221000
15.802915	-0.529595	35.267000
15.874446	-0.512341	35.313000
15.895763	-0.517009	35.470000
15.966906	-0.543794	35.516000
15.988357	-0.838056	35.672000
16.009973	-0.938194	35.717000
16.030776	-1.031999	35.764000
16.051426	-1.118963	35.809000
16.072396	-1.198560	35.855000
16.092953	-1.269053	35.901000
16.113965	-1.329864	35.947000
16.135012	-1.388001	35.993000
16.156216	-1.438410	36.038000
16.176937	-1.480718	36.084000
16.198168	-1.514880	36.130000
16.218685	-1.546351	36.176000
16.239489	-1.566006	36.221000
16.260734	-1.577645	36.267000
16.281560	-1.577676	36.313000
16.302941	-1.571604	36.359000
16.379025	-1.496592	36.405000
16.399544	-1.461087	36.570000
16.471637	-1.420991	36.615000
16.493272	-1.271024	36.772000
16.513641	-1.215344	36.818000
16.534423	-1.155905	36.864000
16.554963	-1.095643	36.910000
16.576042	-1.035486	36.956000
16.597256	-0.973836	37.002000
16.618355	-0.911794	37.047000
16.639600	-0.858403	37.093000
16.660405	-0.811176	37.138000
16.681142	-0.762694	37.184000
16.701674	-0.717539	37.230000
16.722894	-0.674136	37.276000
16.743724	-0.648964	37.321000
16.765019	-0.632937	37.368000
16.787037	-0.634033	37.413000
16.807812	-0.664253	37.459000
17.073006	-1.298175	37.505000
17.093659	-1.296058	38.083000
17.113871	-1.254492	38.129000
17.134917	-1.202083	38.175000
17.156049	-1.146810	38.221000
17.176996	-1.096001	38.267000
17.198029	-1.046970	38.312000
17.219134	-0.994738	38.358000
17.240406	-0.947965	38.404000
17.261285	-0.907923	38.450000
17.281958	-0.872066	38.496000
17.302430	-0.838329	38.542000
17.323798	-0.810587	38.587000
17.395540	-0.757473	38.633000
17.417273	-0.732444	38.789000
17.488045	-0.695487	38.834000
17.508647	-0.541022	38.991000
17.529811	-0.495415	39.037000
17.550954	-0.463554	39.082000
17.571353	-0.443449	39.128000
17.592944	-0.437284	39.174000
17.614309	-0.442184	39.220000
17.634993	-0.439986	39.266000
17.655800	-0.430949	39.311000
17.676597	-0.417037	39.357000
17.697573	-0.375946	39.403000
17.718482	-0.321688	39.449000
17.739525	-0.281026	39.495000
17.760414	-0.272965	39.540000
17.781786	-0.295930	39.586000
17.802314	-0.341884	39.632000
17.823301	-0.394121	39.678000
17.895472	-0.457189	39.723000
17.916555	-0.465258	39.879000
17.988038	-0.472939	39.925000
18.008843	-0.436760	40.081000
18.029470	-0.413062	40.127000
18.050386	-0.395860	40.173000
18.071727	-0.385038	40.219000
18.093273	-0.380169	40.264000
18.114418	-0.383753	40.310000
18.136056	-0.392377	40.356000
18.156362	-0.405986	40.402000
18.176859	-0.412039	40.448000
18.198081	-0.397074	40.493000
18.218548	-0.359152	40.539000
18.239902	-0.321472	40.585000
18.260767	-0.301653	40.631000
18.282042	-0.294825	40.676000
18.302976	-0.287991	40.722000
18.324226	-0.275418	40.768000
18.395306	-0.201482	40.814000
18.416130	-0.189937	40.970000
18.488362	-0.159895	41.016000
18.508890	0.006041	41.172000
18.529572	0.038814	41.218000
18.551307	0.063274	41.264000
18.572212	0.069641	41.310000
18.593066	0.033803	41.356000
18.614077	-0.027638	41.401000
18.635310	-0.096745	41.447000
18.656680	-0.168798	41.493000
18.677277	-0.247691	41.539000
18.698170	-0.331868	41.584000
18.719431	-0.415903	41.630000
18.739813	-0.487164	41.676000
18.760477	-0.540527	41.722000
18.782414	-0.586545	41.767000
18.803826	-0.623943	41.813000
18.824680	-0.646177	41.859000
18.899976	-0.512260	41.905000
18.921409	-0.467879	42.070000
18.992502	-0.438258	42.116000
19.013515	-0.311279	42.272000
19.033895	-0.254728	42.318000
19.054863	-0.201027	42.364000
19.075876	-0.171827	42.410000
19.097097	-0.169475	42.456000
19.118475	-0.157421	42.501000
19.139034	-0.128822	42.547000
19.159729	-0.096795	42.593000
19.180709	-0.074704	42.639000
19.201619	-0.056176	42.684000
19.221955	-0.031061	42.730000
19.243481	0.002835	42.776000
19.265528	0.033954	42.821000
19.286099	0.080683	42.867000
19.306564	0.107322	42.913000
19.327397	0.065457	42.959000
19.592559	-0.190634	43.005000
19.613754	-0.425480	43.583000
19.634801	-0.421281	43.629000
19.655886	-0.403259	43.675000
19.677104	-0.382668	43.721000
19.698624	-0.376736	43.767000
19.719617	-0.390899	43.813000
19.740132	-0.415994	43.859000
19.761067	-0.444866	43.905000
19.781787	-0.464275	43.950000
19.802043	-0.456589	43.996000
19.823242	-0.445909	44.042000
19.845627	-0.446620	44.088000
19.917183	-0.508585	44.133000
19.937506	-0.560954	44.289000
20.008705	-0.585329	44.335000
20.029650	-0.712043	44.491000
20.050914	-0.719850	44.537000
20.072706	-0.696663	44.583000
20.093861	-0.673560	44.628000
20.114698	-0.662834	44.674000
20.135442	-0.667346	44.720000
20.155904	-0.680046	44.766000
20.177047	-0.705839	44.811000
20.197424	-0.731283	44.857000
20.219289	-0.714667	44.903000
20.239908	-0.656913	44.949000
20.260816	-0.594858	44.994000
20.281350	-0.544853	45.040000
20.302537	-0.522917	45.086000
20.324043	-0.545079	45.132000
20.345079	-0.611036	45.178000
20.416689	-0.702069	45.223000
20.437467	-0.671572	45.379000
20.508162	-0.637703	45.425000
20.529242	-0.577511	45.581000
20.550619	-0.572005	45.627000
20.571745	-0.558502	45.673000
20.593354	-0.543193	45.718000
20.614296	-0.528238	45.764000
20.635012	-0.512628	45.810000
20.656359	-0.496458	45.856000
20.677386	-0.483691	45.901000
20.698303	-0.477718	45.947000
20.719540	-0.478591	45.993000
20.740608	-0.486474	46.039000
20.761455	-0.499381	46.085000
20.781253	-0.506700	46.130000
20.802394	-0.513802	46.176000
20.823255	-0.516685	46.222000
20.844021	-0.510461	46.268000
20.916467	-0.433460	46.313000
20.937760	-0.403189	46.470000
21.009008	-0.368223	46.516000
21.030007	-0.268487	46.672000
21.050631	-0.249963	46.718000
21.071628	-0.252447	46.764000
21.092426	-0.275075	46.810000
21.113926	-0.300696	46.855000
21.134416	-0.314456	46.901000
21.155440	-0.322434	46.947000
21.176231	-0.330988	46.992000
21.196790	-0.346692	47.038000
21.217474	-0.367463	47.084000
21.238818	-0.391274	47.129000
21.260549	-0.424225	47.175000
21.281800	-0.469064	47.221000
21.302599	-0.519086	47.267000
21.322877	-0.569005	47.313000
21.343552	-0.618194	47.359000
21.420884	-0.785158	47.404000
21.441314	-0.791833	47.571000
21.512440	-0.782680	47.616000
21.533638	-0.733024	47.772000
21.554710	-0.718443	47.818000
21.576020	-0.684811	47.864000
21.597267	-0.639303	47.909000
21.618055	-0.596105	47.955000
21.638450	-0.554974	48.001000
21.659668	-0.501417	48.047000
21.680417	-0.446142	48.093000
21.701810	-0.399534	48.139000
21.722957	-0.364651	48.185000
21.744405	-0.332912	48.230000
21.765318	-0.301447	48.276000
21.785694	-0.264045	48.322000
21.805973	-0.208947	48.367000
21.827164	-0.149860	48.413000
21.848335	-0.116910	48.459000
22.114446	-0.055294	48.505000
22.135530	-0.347746	49.084000
22.156158	-0.393128	49.129000
22.178144	-0.402845	49.175000
22.198505	-0.386687	49.221000
22.219406	-0.366218	49.267000
22.240342	-0.351974	49.313000
22.260720	-0.333033	49.358000
22.281519	-0.316693	49.404000
22.302539	-0.300820	49.450000
22.324241	-0.287334	49.495000
22.345271	-0.279991	49.541000
22.366189	-0.280092	49.587000
22.437023	-0.241246	49.633000
22.457155	-0.198136	49.788000
22.529249	-0.160334	49.834000
22.550342	-0.141617	49.990000
22.571431	-0.164987	50.036000
22.592376	-0.180346	50.082000
22.612536	-0.183976	50.128000
22.633569	-0.185475	50.173000
22.655031	-0.187369	50.219000
22.676195	-0.183204	50.264000
22.697830	-0.168647	50.310000
22.718212	-0.149779	50.356000
22.738798	-0.135767	50.402000
22.759686	-0.137888	50.448000
22.780137	-0.146938	50.494000
22.801541	-0.150487	50.539000
22.822778	-0.151178	50.585000
22.843894	-0.140795	50.631000
22.864780	-0.105524	50.677000
22.936178	-0.025008	50.723000
22.956941	-0.044321	50.878000
23.028462	-0.060885	50.924000
23.049828	0.035421	51.080000
23.071277	0.083934	51.126000
23.091872	0.136105	51.171000
23.112591	0.185224	51.218000
23.132860	0.220881	51.263000
23.153680	0.248471	51.309000
23.175003	0.270908	51.355000
23.196008	0.281044	51.401000
23.216999	0.279727	51.447000
23.238641	0.270908	51.492000
23.259331	0.257341	51.538000
23.280155	0.238644	51.584000
23.300895	0.216867	51.629000
23.321538	0.187011	51.675000
23.343221	0.149012	51.721000
23.364351	0.098057	51.767000
23.437046	-0.084312	51.812000
23.458290	-0.125324	51.971000
23.529576	-0.160849	52.017000
23.549925	-0.195491	52.172000
23.570805	-0.164044	52.218000
23.592290	-0.133820	52.264000
23.614071	-0.115634	52.310000
23.634946	-0.106144	52.356000
23.655400	-0.094727	52.402000
23.675627	-0.072008	52.448000
23.696869	-0.034585	52.493000
23.717743	0.010829	52.539000
23.738794	0.051488	52.585000
23.760544	0.078566	52.630000
23.781124	0.085220	52.676000
23.801495	0.070865	52.722000
23.823155	0.035158	52.768000
23.843873	-0.017362	52.813000
23.864976	-0.081264	52.859000
23.941221	-0.300318	52.905000
23.961918	-0.348950	53.071000
24.033224	-0.376405	53.116000
24.054688	-0.277357	53.273000
24.076367	-0.226810	53.318000
24.096691	-0.178773	53.364000
24.117587	-0.130720	53.410000
24.138153	-0.079495	53.456000
24.159143	-0.028541	53.502000
24.180038	0.021499	53.548000
24.201363	0.061701	53.593000
24.222788	0.092619	53.639000
24.244229	0.114590	53.685000
24.264423	0.129544	53.731000
24.284777	0.139189	53.776000
24.305553	0.138164	53.822000
24.326340	0.121495	53.868000
24.348284	0.095193	53.913000
24.369218	0.059625	53.959000
24.634088	-0.305649	54.005000
24.655747	-0.587636	54.584000
24.676656	-0.565820	54.630000
24.697983	-0.506926	54.675000
24.717926	-0.440229	54.721000
24.739080	-0.373033	54.767000
24.759889	-0.302207	54.812000
24.781017	-0.208589	54.858000
24.802146	-0.113028	54.904000
24.823625	-0.051842	54.950000
24.844353	-0.022518	54.996000
24.864787	-0.001832	55.042000
24.886172	0.016450	55.088000
24.957415	0.139866	55.134000
24.978422	0.184992	55.290000
25.050823	0.226974	55.335000
25.071221	0.282811	55.491000
25.092227	0.276128	55.537000
25.113195	0.255691	55.583000
25.133893	0.217711	55.629000
25.154803	0.170132	55.675000
25.176496	0.120351	55.721000
25.197287	0.072695	55.767000
25.218057	0.028647	55.812000
25.239350	-0.010884	55.858000
25.259744	-0.048380	55.904000
25.280896	-0.079120	55.950000
25.301911	-0.099592	55.996000
25.323221	-0.108102	56.041000
25.344986	-0.110015	56.087000
25.365320	-0.105382	56.133000
25.386340	-0.091046	56.179000
25.457775	-0.066524	56.225000
25.478498	-0.098093	56.381000
25.550259	-0.132209	56.427000
25.571471	-0.180262	56.583000
25.592960	-0.158628	56.628000
25.613993	-0.124647	56.674000
25.634624	-0.082447	56.720000
25.656016	-0.038591	56.766000
25.675995	0.002558	56.812000
25.697918	0.037038	56.858000
25.718913	0.069408	56.903000
25.739426	0.107362	56.949000
25.760642	0.145191	56.995000
25.780941	0.159940	57.040000
25.801593	0.143526	57.086000
25.822924	0.125663	57.132000
25.844518	0.116697	57.178000
25.866178	0.106380	57.224000
25.887098	0.068597	57.269000
25.957701	-0.189862	57.315000
25.978814	-0.249161	57.471000
26.049713	-0.300850	57.517000
26.071203	-0.337588	57.673000
26.092725	-0.328986	57.718000
26.113754	-0.313190	57.764000
26.133833	-0.292180	57.810000
26.154578	-0.269672	57.856000
26.175381	-0.246303	57.901000
26.196265	-0.227224	57.947000
26.217631	-0.210436	57.993000
26.239212	-0.193375	58.039000
26.260201	-0.170907	58.085000
26.280908	-0.139174	58.131000
26.301448	-0.103101	58.176000
26.322393	-0.067648	58.222000
26.343369	-0.038470	58.268000
26.364802	-0.026383	58.314000
26.386119	-0.013566	58.359000
26.461590	0.064070	58.405000
26.563060	-0.022971	58.571000
26.585205	0.010910	58.794000
26.605736	0.047236	58.840000
26.626961	0.075401	58.885000
26.647787	0.095008	58.931000
26.668671	0.082791	58.977000
26.690012	0.032059	59.023000
26.710534	-0.040123	59.069000
26.731279	-0.117273	59.114000
26.753452	-0.177565	59.160000
26.774589	-0.210789	59.206000
26.794927	-0.217330	59.252000
26.815655	-0.208164	59.297000
26.836487	-0.200336	59.343000
26.857346	-0.205287	59.389000
26.878715	-0.194011	59.435000
26.899689	-0.169792	59.481000
27.155068	-0.178217	59.526000
27.175737	-0.231025	60.084000
27.196878	-0.241064	60.130000
27.217287	-0.254930	60.175000
27.238873	-0.262970	60.221000
27.259473	-0.264561	60.267000
27.281417	-0.264066	60.313000
27.301701	-0.262485	60.359000
27.322519	-0.273929	60.405000
27.344559	-0.277103	60.450000
27.365259	-0.278592	60.496000
27.386444	-0.285083	60.542000
27.406888	-0.294784	60.588000
27.478835	-0.238681	60.634000
27.500340	-0.173462	60.790000
27.570605	-0.104094	60.836000
27.591606	0.053260	60.991000
27.612543	0.087779	61.037000
27.634151	0.116389	61.083000
27.655347	0.142077	61.129000
27.676529	0.163772	61.175000
27.697172	0.179031	61.221000
27.717856	0.190539	61.266000
27.738204	0.207722	61.312000
27.759447	0.227392	61.358000
27.780125	0.266881	61.404000
27.801423	0.343040	61.450000
27.823586	0.415257	61.495000
27.844236	0.461175	61.541000
27.865081	0.480252	61.587000
27.885187	0.481220	61.632000
27.906003	0.468690	61.678000
27.978137	0.397106	61.724000
27.999532	0.383306	61.880000
28.070371	0.378366	61.926000
28.091261	0.348621	62.082000
28.113080	0.356184	62.128000
28.133502	0.365246	62.173000
28.154761	0.361052	62.219000
28.175788	0.335913	62.265000
28.197571	0.299701	62.311000
28.218303	0.270298	62.357000
28.239242	0.248074	62.402000
28.259069	0.227352	62.448000
28.280660	0.202300	62.494000
28.301720	0.173515	62.540000
28.322859	0.138993	62.586000
28.344619	0.105155	62.632000
28.364588	0.079498	62.677000
28.385821	0.075073	62.723000
28.406505	0.094066	62.769000
28.477510	0.175129	62.815000
28.498918	0.193174	62.971000
28.571857	0.211729	63.017000
28.592128	0.295239	63.173000
28.612510	0.385220	63.219000
28.633830	0.465947	63.264000
28.654702	0.502939	63.310000
28.675662	0.505942	63.356000
28.697017	0.500202	63.401000
28.717810	0.498504	63.447000
28.738678	0.501997	63.493000
28.759287	0.508720	63.538000
28.779915	0.512223	63.584000
28.801131	0.508710	63.630000
28.822046	0.498251	63.676000
28.842647	0.481921	63.721000
28.863853	0.464204	63.767000
28.885344	0.446840	63.812000
28.905711	0.431769	63.858000
28.982734	0.447551	63.904000
29.003508	0.471350	64.071000
29.074726	0.503120	64.117000
29.095788	0.587634	64.273000
29.116775	0.604039	64.319000
29.138155	0.620726	64.364000
29.159263	0.631473	64.410000
29.180684	0.635632	64.456000
29.201251	0.636147	64.502000
29.222229	0.631241	64.548000
29.243109	0.612423	64.594000
29.264376	0.582000	64.639000
29.284939	0.540353	64.685000
29.306155	0.499848	64.731000
29.327312	0.472716	64.777000
29.348591	0.453602	64.823000
29.369561	0.460468	64.869000
29.390675	0.489646	64.914000
29.411179	0.529179	64.960000
29.676016	0.548655	65.006000
29.696438	0.629772	65.584000
29.717501	0.645415	65.630000
29.738882	0.660735	65.676000
29.760215	0.674592	65.722000
29.781181	0.681518	65.768000
29.802147	0.677322	65.814000
29.823194	0.660215	65.860000
29.844318	0.629752	65.905000
29.865348	0.575096	65.951000
29.886229	0.503533	65.997000
29.907057	0.424744	66.043000
29.928630	0.349947	66.088000
29.999526	0.205919	66.134000
30.019731	0.182519	66.290000
30.091189	0.162272	66.336000
30.112505	0.237906	66.492000
30.133886	0.282362	66.537000
30.155461	0.325958	66.583000
30.176082	0.359556	66.629000
30.196295	0.383165	66.675000
30.217284	0.397650	66.721000
30.237859	0.409767	66.766000
30.258629	0.428165	66.812000
30.280439	0.451547	66.858000
30.302250	0.472364	66.904000
30.323245	0.493462	66.950000
30.343762	0.528116	66.995000
30.364417	0.578856	67.041000
30.385301	0.613428	67.087000
30.405752	0.645101	67.132000
30.427352	0.685625	67.178000
30.498466	0.825888	67.224000
30.519774	0.852280	67.380000
30.591002	0.880748	67.426000
30.611924	1.040178	67.582000
30.633290	1.085682	67.628000
30.654834	1.118054	67.674000
30.675616	1.130491	67.719000
30.696235	1.132693	67.765000
30.717089	1.131263	67.810000
30.737942	1.125959	67.856000
30.757862	1.118357	67.902000
30.778839	1.104945	67.948000
30.800951	1.094682	67.993000
30.821515	1.085193	68.040000
30.841948	1.082366	68.085000
30.863890	1.062605	68.131000
30.884908	1.023470	68.177000
30.905931	0.970118	68.222000
30.926946	0.911136	68.268000
30.999466	0.728854	68.314000
31.020450	0.698406	68.471000
31.091671	0.679613	68.517000
31.112050	0.655127	68.673000
31.132926	0.649024	68.719000
31.153719	0.640811	68.764000
31.174874	0.632852	68.810000
31.195940	0.624316	68.856000
31.217173	0.617572	68.902000
31.237713	0.613064	68.948000
31.258902	0.609890	68.993000
31.279889	0.632538	69.039000
31.300550	0.663360	69.085000
31.322263	0.667403	69.131000
31.343101	0.646632	69.176000
31.364465	0.627389	69.222000
31.385151	0.610365	69.268000
31.405877	0.587281	69.313000
31.426651	0.555309	69.359000
31.503445	0.385140	69.405000
31.523789	0.328453	69.571000
31.594947	0.275367	69.617000
31.616413	0.172595	69.773000
31.637224	0.180156	69.819000
31.658712	0.200565	69.865000
31.679688	0.228211	69.911000
31.700193	0.254076	69.957000
31.720687	0.271343	70.002000
31.741546	0.269945	70.048000
31.762671	0.255771	70.094000
31.783386	0.233243	70.140000
31.805144	0.197425	70.185000
31.826696	0.152631	70.231000
31.847349	0.105367	70.277000
31.868188	0.049181	70.323000
31.888995	-0.018475	70.368000
31.910219	-0.090551	70.414000
31.930799	-0.147629	70.460000
32.195972	-0.225653	70.506000
32.217050	-0.083268	71.084000
32.238237	-0.079907	71.130000
32.259559	-0.071937	71.176000
32.280857	-0.045093	71.222000
32.301902	-0.026726	71.268000
32.322813	-0.011177	71.314000
32.343773	0.010870	71.360000
32.364380	0.052085	71.406000
32.386021	0.107100	71.451000
32.406370	0.173741	71.497000
32.427139	0.248276	71.543000
32.448276	0.312800	71.588000
32.519617	0.324853	71.634000
32.540531	0.318292	71.790000
32.611964	0.312799	71.836000
32.634054	0.352326	71.992000
32.654838	0.405191	72.037000
32.675787	0.445433	72.083000
32.696229	0.441305	72.129000
32.716743	0.398563	72.175000
32.737842	0.350119	72.221000
32.759206	0.313658	72.266000
32.780282	0.272953	72.312000
32.801753	0.215601	72.358000
32.822437	0.171236	72.404000
32.843663	0.155721	72.449000
32.864385	0.133133	72.495000
32.885303	0.086404	72.541000
32.906690	0.038284	72.587000
32.928365	-0.000698	72.633000
32.948384	-0.019937	72.678000
33.020551	0.034906	72.724000
33.041281	0.083713	72.880000
33.111270	0.136095	72.926000
33.133029	0.293281	73.082000
33.154543	0.352669	73.128000
33.174881	0.403281	73.174000
33.195361	0.416310	73.219000
33.216733	0.393946	73.265000
33.237951	0.357015	73.311000
33.259038	0.311195	73.357000
33.280056	0.251026	73.402000
33.301128	0.170071	73.448000
33.322288	0.097217	73.494000
33.343030	0.050840	73.540000
33.363921	0.042860	73.586000
33.384993	0.073295	73.631000
33.405277	0.120927	73.677000
33.426591	0.168012	73.723000
33.448401	0.209427	73.768000
33.519565	0.301982	73.814000
33.540579	0.298797	73.972000
33.612154	0.281500	74.017000
33.632554	0.270116	74.173000
33.654213	0.292957	74.219000
33.675827	0.298565	74.265000
33.696192	0.292735	74.311000
33.716807	0.291131	74.357000
33.737464	0.296122	74.402000
33.758632	0.302478	74.448000
33.779596	0.320573	74.494000
33.801090	0.373909	74.540000
33.823019	0.439622	74.585000
33.844029	0.496024	74.631000
33.864825	0.530878	74.677000
33.884886	0.542158	74.723000
33.906388	0.541805	74.768000
33.926857	0.528660	74.814000
33.948167	0.519643	74.860000
34.023753	0.500499	74.906000
34.044579	0.481118	75.071000
34.116231	0.460166	75.117000
34.137668	0.436800	75.273000
34.157714	0.439531	75.319000
34.178709	0.458049	75.365000
34.199892	0.493503	75.411000
34.220323	0.525545	75.457000
34.241141	0.531407	75.503000
34.262616	0.519946	75.549000
34.284614	0.511705	75.594000
34.305613	0.526851	75.640000
34.326946	0.542492	75.686000
34.346935	0.544790	75.732000
34.368214	0.541034	75.778000
34.389413	0.529682	75.824000
34.410869	0.498896	75.870000
34.431587	0.466945	75.915000
34.453204	0.438569	75.961000
34.717366	0.274089	76.007000
34.738825	0.522163	76.584000
34.759820	0.547511	76.631000
34.780758	0.567217	76.676000
34.801323	0.599824	76.722000
34.822087	0.648171	76.768000
34.842932	0.687013	76.814000
34.864696	0.722327	76.860000
34.886010	0.755233	76.905000
34.907258	0.774657	76.951000
34.927443	0.786487	76.997000
34.947961	0.797782	77.042000
34.968895	0.815853	77.088000
35.040393	0.861278	77.134000
35.061577	0.877458	77.290000
35.133010	0.908143	77.336000
35.154316	1.079732	77.492000
35.174301	1.133303	77.538000
35.195638	1.163413	77.584000
35.217028	1.172286	77.630000
35.238500	1.164346	77.675000
35.259987	1.143848	77.721000
35.280724	1.118620	77.767000
35.301135	1.090403	77.813000
35.322015	1.062282	77.858000
35.342215	1.032088	77.904000
35.363560	1.007585	77.950000
35.384977	0.986641	77.996000
35.405988	0.969494	78.042000
35.426933	0.968093	78.088000
35.447740	0.972297	78.133000
35.468473	0.973350	78.179000
35.539810	0.932896	78.225000
35.561374	0.887471	78.381000
35.633595	0.837996	78.426000
35.654563	0.792440	78.582000
35.675531	0.791539	78.628000
35.696269	0.786589	78.674000
35.717056	0.772042	78.720000
35.737848	0.746991	78.766000
35.759477	0.718026	78.811000
35.780771	0.682138	78.857000
35.801048	0.641408	78.903000
35.821978	0.604494	78.949000
35.843280	0.579352	78.995000
35.863668	0.559336	79.041000
35.884490	0.541548	79.087000
35.906085	0.528967	79.132000
35.927737	0.531799	79.178000
35.948290	0.544980	79.224000
35.969531	0.560787	79.270000
36.040184	0.592167	79.316000
36.061310	0.593545	79.472000
36.132942	0.591703	79.518000
36.154994	0.601596	79.673000
36.175436	0.597144	79.719000
36.196385	0.584929	79.765000
36.216731	0.567419	79.811000
36.237921	0.551321	79.857000
36.258986	0.539799	79.903000
36.280253	0.534491	79.949000
36.302063	0.538302	79.994000
36.322847	0.547118	80.040000
36.343250	0.562284	80.086000
36.364383	0.591632	80.132000
36.384998	0.630620	80.178000
36.405609	0.678089	80.223000
36.426739	0.729696	80.269000
36.448429	0.774869	80.315000
36.469290	0.806906	80.361000
36.544718	0.867567	80.407000
36.565821	0.902623	80.572000
36.637930	0.932582	80.618000
36.658479	1.038577	80.774000
36.679666	1.068970	80.819000
36.700258	1.080812	80.865000
36.721345	1.100553	80.911000
36.742129	1.121390	80.957000
36.763673	1.125616	81.002000
36.784914	1.122128	81.048000
36.805149	1.122990	81.094000
36.825767	1.127927	81.140000
36.846613	1.126125	81.186000
36.867477	1.114819	81.232000
36.888799	1.099977	81.277000
36.910839	1.100482	81.323000
36.931630	1.138280	81.369000
36.952567	1.190715	81.415000
36.973463	1.245618	81.461000
37.238204	1.434946	81.506000
37.259210	1.569604	82.084000
37.279556	1.556545	82.131000
37.300209	1.537415	82.176000
37.321381	1.521291	82.222000
37.342760	1.510019	82.268000
37.364278	1.497996	82.314000
37.384923	1.492560	82.359000
37.405672	1.489153	82.405000
37.426299	1.487563	82.451000
37.447309	1.477568	82.497000
37.468135	1.461365	82.542000
37.489618	1.439479	82.588000
37.560817	1.274228	82.634000
37.581823	1.245448	82.790000
37.652542	1.239202	82.835000
37.673933	1.286834	82.991000
37.695173	1.322196	83.037000
37.716522	1.372943	83.083000
37.737509	1.430100	83.128000
37.757901	1.480981	83.174000
37.778639	1.519893	83.220000
37.799142	1.540069	83.266000
37.819849	1.543537	83.311000
37.841244	1.538368	83.357000
37.862834	1.529464	83.403000
37.883476	1.518050	83.449000
37.905116	1.493150	83.495000
37.925865	1.456955	83.541000
37.946730	1.420192	83.586000
37.967621	1.394325	83.632000
37.988194	1.397375	83.678000
38.061256	1.492358	83.723000
38.081813	1.495311	83.880000
38.152389	1.478538	83.926000
38.173307	1.419718	84.081000
38.194640	1.450029	84.127000
38.215539	1.483070	84.173000
38.236523	1.501343	84.219000
38.257990	1.499354	84.264000
38.278947	1.491954	84.310000
38.299546	1.496089	84.356000
38.320707	1.506734	84.402000
38.340922	1.516814	84.447000
38.362528	1.524800	84.493000
38.383895	1.525460	84.539000
38.405006	1.521110	84.584000
38.425586	1.510606	84.630000
38.446297	1.502983	84.676000
38.467380	1.511004	84.722000
38.487872	1.545475	84.767000
38.560961	1.586770	84.813000
38.582040	1.569886	84.972000
38.654222	1.547786	85.018000
38.674660	1.487674	85.174000
38.695298	1.476695	85.219000
38.716481	1.485231	85.265000
38.737158	1.515647	85.311000
38.758518	1.559922	85.357000
38.779943	1.599369	85.403000
38.800450	1.617772	85.449000
38.821288	1.612579	85.494000
38.842682	1.585886	85.540000
38.863416	1.548413	85.586000
38.884284	1.504972	85.632000
38.905491	1.450154	85.678000
38.926597	1.386684	85.723000
38.947953	1.314480	85.769000
38.968975	1.236334	85.815000
38.989713	1.158708	85.861000
39.066148	0.915541	85.907000
39.086597	0.867271	86.072000
39.156720	0.828953	86.118000
39.177812	0.673386	86.274000
39.198699	0.625016	86.319000
39.220036	0.576161	86.366000
39.241684	0.524280	86.411000
39.262741	0.469571	86.457000
39.283494	0.405589	86.503000
39.304512	0.336665	86.549000
39.325311	0.272872	86.595000
39.345995	0.238593	86.640000
39.367232	0.253995	86.686000
39.388684	0.289500	86.732000
39.410332	0.312849	86.778000
39.431004	0.307862	86.824000
39.451896	0.278268	86.870000
39.472622	0.235413	86.915000
39.493590	0.207227	86.961000
39.758769	0.370356	87.007000
39.779806	0.122099	87.585000
39.800705	0.075269	87.631000
39.822023	0.031116	87.677000
39.843725	-0.006318	87.723000
39.864597	-0.038348	87.769000
39.885270	-0.073324	87.815000
39.905842	-0.106966	87.861000
39.926653	-0.136529	87.906000
39.947909	-0.161580	87.952000
39.968528	-0.184592	87.998000
39.989661	-0.207241	88.044000
40.011259	-0.234961	88.090000
40.081962	-0.335992	88.135000
40.102346	-0.363636	88.291000
40.174118	-0.387638	88.337000
40.195447	-0.459234	88.492000
40.216342	-0.476805	88.538000
40.237675	-0.494875	88.584000
40.258324	-0.512837	88.630000
40.279254	-0.529689	88.676000
40.300011	-0.544489	88.722000
40.321117	-0.557628	88.768000
40.342155	-0.571145	88.813000
40.363922	-0.584030	88.859000
40.385082	-0.597119	88.905000
40.405820	-0.614554	88.951000
40.426700	-0.627784	88.996000
40.446969	-0.641503	89.042000
40.468167	-0.652572	89.088000
40.488970	-0.664862	89.133000
40.510645	-0.676855	89.179000
40.581648	-0.711769	89.225000
40.602547	-0.722293	89.381000
40.673627	-0.733864	89.427000
40.694460	-0.756112	89.582000
40.716212	-0.756227	89.629000
40.737415	-0.754725	89.674000
40.758187	-0.752407	89.720000
40.779117	-0.754261	89.766000
40.799628	-0.757543	89.812000
40.820400	-0.762895	89.858000
40.842163	-0.767150	89.904000
40.863400	-0.771207	89.949000
40.884880	-0.771065	89.995000
40.906205	-0.772320	90.041000
40.926362	-0.771928	90.087000
40.947200	-0.768555	90.133000
40.968061	-0.767269	90.178000
40.988526	-0.768375	90.224000
41.009797	-0.769820	90.269000
41.081795	-0.761893	90.315000
41.102698	-0.752266	90.472000
41.173443	-0.737609	90.518000
41.193762	-0.665266	90.674000
41.214822	-0.647474	90.720000
41.236240	-0.629995	90.766000
41.257788	-0.614574	90.811000
41.278668	-0.599215	90.858000
41.299967	-0.586257	90.903000
41.320677	-0.576243	90.949000
41.341308	-0.565376	90.995000
41.362395	-0.554791	91.041000
41.382921	-0.544560	91.086000
41.404335	-0.538094	91.132000
41.426121	-0.530805	91.177000
41.447170	-0.521811	91.224000
41.467643	-0.517990	91.269000
41.488473	-0.515681	91.315000
41.509103	-0.517078	91.361000
41.585922	-0.537973	91.407000
41.606510	-0.550592	91.572000
41.677835	-0.561197	91.618000
41.698734	-0.513680	91.774000
41.720594	-0.455162	91.820000
41.741339	-0.382668	91.866000
41.762488	-0.316309	91.911000
41.783060	-0.261551	91.957000
41.804009	-0.227345	92.003000
41.825043	-0.210627	92.049000
41.845846	-0.201688	92.094000
41.866987	-0.192835	92.140000
41.888420	-0.175345	92.185000
41.908761	-0.146524	92.231000
41.929564	-0.110767	92.277000
41.950421	-0.082684	92.323000
41.970905	-0.066886	92.369000
41.991716	-0.066433	92.415000
42.013591	-0.074894	92.460000
42.278747	-0.159207	92.506000
42.300506	0.050325	93.085000
42.321517	0.122011	93.131000
42.342596	0.189313	93.177000
42.363176	0.253071	93.223000
42.384221	0.311592	93.269000
42.405044	0.364923	93.314000
42.425866	0.413614	93.360000
42.446769	0.460962	93.406000
42.468313	0.514054	93.452000
42.489754	0.573370	93.497000
42.509954	0.627399	93.543000
42.530937	0.663946	93.589000
42.601759	0.616144	93.635000
42.623023	0.591506	93.790000
42.694848	0.582324	93.836000
42.715862	0.601727	93.992000
42.736608	0.604811	94.038000
42.757361	0.597522	94.083000
42.778049	0.583854	94.129000
42.798640	0.561181	94.175000
42.820699	0.533084	94.221000
42.842616	0.495292	94.267000
42.863158	0.448675	94.313000
42.884011	0.396406	94.358000
42.904353	0.340001	94.404000
42.925129	0.282831	94.449000
42.946143	0.227230	94.495000
42.967042	0.177703	94.541000
42.988491	0.133682	94.587000
43.009501	0.096742	94.633000
43.029897	0.064110	94.679000
43.101280	-0.027205	94.724000
43.122094	-0.048319	94.880000
43.194726	-0.063393	94.926000
43.215936	-0.070621	95.082000
43.236766	-0.075808	95.128000
43.257611	-0.079514	95.173000
43.278119	-0.081661	95.219000
43.299313	-0.082683	95.265000
43.320385	-0.081283	95.311000
43.341872	-0.082704	95.357000
43.362898	-0.088961	95.402000
43.383263	-0.093621	95.448000
43.404150	-0.098551	95.494000
43.424650	-0.104533	95.540000
43.445326	-0.112725	95.585000
43.466505	-0.115036	95.631000
43.487750	-0.112488	95.677000
43.508772	-0.105658	95.722000
43.530247	-0.095872	95.768000
43.602541	-0.050567	95.814000
43.623136	-0.020420	95.972000
43.694493	0.029519	96.018000
43.715618	0.239830	96.174000
43.736748	0.290777	96.220000
43.758461	0.333672	96.266000
43.778980	0.370336	96.311000
43.799552	0.401013	96.357000
43.820620	0.428468	96.403000
43.841297	0.452792	96.449000
43.862034	0.474733	96.495000
43.883329	0.496935	96.541000
43.904616	0.518880	96.587000
43.925811	0.545398	96.632000
43.946414	0.577761	96.678000
43.966760	0.615149	96.724000
43.987793	0.654021	96.770000
44.009038	0.692465	96.815000
44.030575	0.732880	96.861000
44.106572	0.851927	96.907000
44.126952	0.863303	97.073000
44.198862	0.861186	97.118000
44.219565	0.798656	97.274000
44.241224	0.780247	97.320000
44.261947	0.761184	97.366000
44.282996	0.734633	97.412000
44.303760	0.702414	97.457000
44.324202	0.674511	97.503000
44.345931	0.651830	97.549000
44.367563	0.631898	97.595000
44.388124	0.616754	97.641000
44.408808	0.610132	97.686000
44.429296	0.610132	97.732000
44.450130	0.617431	97.778000
44.471528	0.626739	97.824000
44.492546	0.642645	97.870000
44.514314	0.657924	97.915000
44.535101	0.672486	97.961000
44.799435	0.987220	98.007000
44.820676	1.356688	98.585000
44.841590	1.417309	98.631000
44.862466	1.470592	98.677000
44.883300	1.521882	98.723000
44.903869	1.567251	98.768000
44.925102	1.593287	98.814000
44.947257	1.595528	98.860000
44.968102	1.589405	98.906000
44.989174	1.587659	98.951000
45.009186	1.585368	98.997000
45.030073	1.581112	99.043000
45.050949	1.597129	99.089000
45.123151	1.646508	99.135000
45.144000	1.637217	99.290000
45.214634	1.614295	99.336000
45.235744	1.589900	99.492000
45.256405	1.606607	99.538000
45.276966	1.618227	99.584000
45.298506	1.623184	99.629000
45.320208	1.618166	99.675000
45.341564	1.616829	99.721000
45.361795	1.626430	99.767000
45.381929	1.649154	99.813000
45.403270	1.677572	99.858000
45.424423	1.707103	99.904000
45.445330	1.733182	99.950000
45.466962	1.755808	99.996000
45.487665	1.768646	100.042000
45.508050	1.761963	100.087000
45.529129	1.736540	100.133000
45.550205	1.698630	100.179000
45.621319	1.515108	100.225000
45.643447	1.468745	100.381000
45.714235	1.439590	100.426000
45.734677	1.471380	100.582000
45.755514	1.493625	100.628000
45.776479	1.501747	100.674000
45.797643	1.497062	100.720000
45.819087	1.475367	100.765000
45.840636	1.445935	100.811000
45.861412	1.410161	100.857000
45.881992	1.368795	100.903000
45.902910	1.328613	100.949000
45.923444	1.289586	100.994000
45.944600	1.257374	101.040000
45.966137	1.233573	101.086000
45.987716	1.219440	101.132000
46.008692	1.210658	101.178000
46.029314	1.201694	101.223000
46.050552	1.190331	101.269000
46.121823	1.153700	101.315000
46.142914	1.157866	101.473000
46.214904	1.168329	101.519000
46.235880	1.240639	101.674000
46.257202	1.284959	101.720000
46.277586	1.342086	101.766000
46.298839	1.404712	101.811000
46.319465	1.461976	101.857000
46.340602	1.515290	101.903000
46.361743	1.557670	101.949000
46.383053	1.601772	101.995000
46.403821	1.660413	102.041000
46.424306	1.726811	102.086000
46.445155	1.785754	102.132000
46.466238	1.824407	102.178000
46.487076	1.847880	102.223000
46.508493	1.860894	102.269000
46.529799	1.862700	102.315000
46.550687	1.856944	102.361000
46.626000	1.832759	102.407000
46.647909	1.838955	102.573000
46.719546	1.857296	102.619000
46.739900	1.949909	102.774000
46.760799	1.963305	102.820000
46.781448	1.935836	102.866000
46.802239	1.870711	102.912000
46.823976	1.782261	102.957000
46.845497	1.703253	103.003000
46.866469	1.657122	103.049000
46.887011	1.630312	103.095000
46.908021	1.619414	103.141000
46.929197	1.627868	103.187000
46.950038	1.656332	103.232000
46.971233	1.686805	103.278000
46.992778	1.708621	103.324000
47.013419	1.719069	103.369000
47.033911	1.719029	103.415000
47.054645	1.710959	103.461000
47.319716	1.554414	103.507000
47.340377	1.557902	104.086000
47.361188	1.607530	104.131000
47.382094	1.670906	104.177000
47.403212	1.738907	104.223000
47.424726	1.803791	104.269000
47.446159	1.856528	104.314000
47.466732	1.878424	104.360000
47.487350	1.885510	104.406000
47.508103	1.899482	104.452000
47.529594	1.914039	104.497000
47.550132	1.922262	104.543000
47.571822	1.919556	104.589000
47.643051	1.825114	104.635000
47.663482	1.804340	104.791000
47.734327	1.791014	104.837000
47.755906	1.721367	104.992000
47.776709	1.700420	105.038000
47.798419	1.689164	105.084000
47.819364	1.683875	105.129000
47.840401	1.676447	105.175000
47.861023	1.669742	105.221000
47.882418	1.673064	105.267000
47.903279	1.685393	105.313000
47.924362	1.702597	105.358000
47.945607	1.711770	105.404000
47.966417	1.703873	105.450000
47.987144	1.669310	105.496000
48.008569	1.609569	105.542000
48.029026	1.548503	105.587000
48.050194	1.502650	105.633000
48.070939	1.462591	105.679000
48.143122	1.357132	105.725000
48.164355	1.338461	105.881000
48.234608	1.306980	105.927000
48.255573	1.157643	106.082000
48.276656	1.124460	106.128000
48.298093	1.102743	106.174000
48.319457	1.095394	106.220000
48.340156	1.102440	106.265000
48.360817	1.116328	106.311000
48.381036	1.131779	106.356000
48.402488	1.145205	106.402000
48.423199	1.150697	106.448000
48.444455	1.166899	106.494000
48.466357	1.206095	106.540000
48.487540	1.272081	106.586000
48.508312	1.340185	106.631000
48.529000	1.380235	106.677000
48.549261	1.385569	106.723000
48.570237	1.377137	106.769000
48.643599	1.385175	106.814000
48.665109	1.409067	106.973000
48.735650	1.444455	107.019000
48.756619	1.652302	107.174000
48.777314	1.714370	107.220000
48.798294	1.767813	107.266000
48.819585	1.823504	107.312000
48.841052	1.872866	107.357000
48.862385	1.909103	107.403000
48.882623	1.943452	107.448000
48.903557	1.987332	107.494000
48.924552	2.042655	107.540000
48.945313	2.093274	107.586000
48.966573	2.110370	107.632000
48.988163	2.087008	107.677000
49.008421	2.055929	107.723000
49.029043	2.045799	107.768000
49.049769	2.041806	107.814000
49.070180	2.029702	107.860000
49.147764	2.061615	107.905000
49.168275	2.068560	108.073000
49.239005	2.074794	108.119000
49.260139	2.247852	108.274000
49.280884	2.295820	108.320000
49.302832	2.323416	108.366000
49.324038	2.338857	108.412000
49.345110	2.341421	108.458000
49.365321	2.344309	108.504000
49.386063	2.364182	108.549000
49.407004	2.383221	108.595000
49.427699	2.392772	108.641000
49.449424	2.394477	108.686000
49.470638	2.391393	108.732000
49.490834	2.418646	108.778000
49.511937	2.475624	108.823000
49.532705	2.526421	108.869000
49.553370	2.560711	108.915000
49.574523	2.576045	108.961000
49.839855	2.516672	109.007000
49.860885	2.768691	109.586000
49.882456	2.783970	109.632000
49.904381	2.767535	109.678000
49.925591	2.731514	109.723000
49.946190	2.684411	109.769000
49.966390	2.638469	109.815000
49.987796	2.600556	109.860000
50.007946	2.574285	109.906000
50.029368	2.559971	109.952000
50.050693	2.547843	109.998000
50.071385	2.535877	110.043000
50.092314	2.511609	110.089000
50.163605	2.416677	110.135000
50.183851	2.406369	110.291000
50.256183	2.400182	110.337000
50.278166	2.452203	110.492000
50.298538	2.484830	110.538000
50.318930	2.517066	110.584000
50.339906	2.545777	110.630000
50.361105	2.566143	110.675000
50.381988	2.581513	110.721000
50.403437	2.588055	110.767000
50.424370	2.587747	110.813000
50.445427	2.594945	110.859000
50.465876	2.608966	110.905000
50.486729	2.617288	110.950000
50.508059	2.620651	110.996000
50.528669	2.631462	111.042000
50.549810	2.646134	111.087000
50.571466	2.645646	111.133000
50.592692	2.633630	111.179000
50.663741	2.613332	111.225000
50.684574	2.616572	111.381000
50.755427	2.614587	111.427000
50.776684	2.710803	111.582000
50.798274	2.742665	111.628000
50.819519	2.766621	111.674000
50.840203	2.798719	111.720000
50.861567	2.832786	111.766000
50.881694	2.842640	111.811000
50.902385	2.835734	111.857000
50.924264	2.840267	111.903000
50.945508	2.875863	111.949000
50.966042	2.907274	111.995000
50.986918	2.916834	112.041000
51.007694	2.915290	112.086000
51.028344	2.915931	112.132000
51.048836	2.925057	112.178000
51.070246	2.929686	112.223000
51.091556	2.928439	112.269000
51.163999	2.848177	112.315000
51.184452	2.829571	112.473000
51.255152	2.825189	112.519000
51.276842	2.896351	112.675000
51.297653	2.898017	112.721000
51.319320	2.862491	112.766000
51.340450	2.838586	112.812000
51.360995	2.832816	112.858000
51.381844	2.843583	112.904000
51.402336	2.868301	112.950000
51.423604	2.899213	112.996000
51.444860	2.929343	113.041000
51.465694	2.942325	113.087000
51.487353	2.960164	113.133000
51.508614	3.003299	113.179000
51.528836	3.042215	113.225000
51.549908	3.068505	113.270000
51.570723	3.084655	113.316000
51.591687	3.076484	113.362000
51.668449	2.976555	113.408000
51.689490	2.973923	113.573000
51.759736	2.978495	113.619000
51.781372	2.996060	113.775000
51.802586	2.957174	113.820000
51.822909	2.904150	113.866000
51.843908	2.854664	113.912000
51.864354	2.809496	113.958000
51.885798	2.762220	114.003000
51.906693	2.732453	114.049000
51.928265	2.717759	114.095000
51.949056	2.723726	114.141000
51.970443	2.730782	114.186000
51.991646	2.726769	114.232000
52.012422	2.718620	114.278000
52.033328	2.708918	114.324000
52.054035	2.695385	114.369000
52.075165	2.686649	114.415000
52.096859	2.680979	114.461000
52.361012	2.890360	114.507000
52.383006	3.091121	115.086000
52.404163	3.131556	115.132000
52.424777	3.162817	115.178000
52.445473	3.164216	115.224000
52.465742	3.129483	115.269000
52.486648	3.057270	115.315000
52.507655	2.980520	115.360000
52.528773	2.924851	115.407000
52.550171	2.896821	115.452000
52.571151	2.889935	115.498000
52.592046	2.890451	115.544000
52.613068	2.886569	115.590000
52.684428	2.815296	115.636000
52.705354	2.787467	115.792000
52.776395	2.758570	115.838000
52.797621	2.686739	115.994000
52.819042	2.686739	116.039000
52.839830	2.695747	116.085000
52.861394	2.710419	116.131000
52.881728	2.736249	116.177000
52.903315	2.775595	116.223000
52.924263	2.822645	116.269000
52.945328	2.871617	116.315000
52.966088	2.917581	116.361000
52.986603	2.956044	116.406000
53.006903	2.989694	116.452000
53.028278	3.006972	116.498000
53.050057	3.014983	116.544000
53.071413	3.032356	116.589000
53.092612	3.063031	116.635000
53.112973	3.099273	116.681000
53.184091	3.097502	116.727000
53.205397	3.096540	116.883000
53.276366	3.109236	116.929000
53.298206	3.194622	117.084000
53.319289	3.212037	117.131000
53.339600	3.222066	117.176000
53.360192	3.220239	117.222000
53.381648	3.209291	117.268000
53.402539	3.196838	117.313000
53.423296	3.193496	117.360000
53.444860	3.194436	117.405000
53.465943	3.197328	117.451000
53.487192	3.202386	117.497000
53.507419	3.187056	117.542000
53.528498	3.152616	117.588000
53.549831	3.111635	117.634000
53.570634	3.084331	117.680000
53.591714	3.064589	117.725000
53.613347	3.033470	117.771000
53.684376	2.863067	117.817000
53.705072	2.815729	117.973000
53.776493	2.794918	118.019000
53.797719	2.929039	118.175000
53.819209	2.987346	118.220000
53.839663	3.037991	118.266000
53.860735	3.059447	118.312000
53.881418	3.068717	118.358000
53.902909	3.091131	118.404000
53.923443	3.114257	118.450000
53.944434	3.107524	118.495000
53.966728	3.102996	118.541000
53.986705	3.111500	118.587000
54.007865	3.093128	118.632000
54.028833	3.048026	118.678000
54.049052	2.989603	118.724000
54.069936	2.933759	118.770000
54.091457	2.878855	118.816000
54.112487	2.839801	118.861000
54.187631	2.840560	118.907000
54.208811	2.875489	119.073000
54.281219	2.922795	119.119000
54.301834	3.031928	119.275000
54.322752	3.061418	119.321000
54.342967	3.098696	119.366000
54.363997	3.133026	119.412000
54.384892	3.166018	119.457000
54.406394	3.198201	119.503000
54.427674	3.238366	119.549000
54.448277	3.283432	119.594000
54.469264	3.332353	119.640000
54.489729	3.373951	119.686000
54.510763	3.398440	119.732000
54.531523	3.412554	119.777000
54.553460	3.420297	119.823000
54.574543	3.419071	119.869000
54.595089	3.413689	119.915000
54.615792	3.410044	119.960000
54.882335	3.419983	120.006000
54.902938	3.521486	120.586000
54.923645	3.546144	120.632000
54.944640	3.562903	120.678000
54.965873	3.570674	120.724000
54.986664	3.579931	120.770000
55.007752	3.592620	120.815000
55.029139	3.595023	120.861000
55.049941	3.581277	120.907000
55.070383	3.556541	120.953000
55.091340	3.517203	120.998000
55.111893	3.470907	121.044000
55.133027	3.425125	121.089000
55.205124	3.221527	121.136000
55.225366	3.168299	121.291000
55.296711	3.122760	121.337000
55.317979	3.074125	121.492000
55.338805	3.100496	121.538000
55.359838	3.139897	121.584000
55.381471	3.187676	121.630000
55.402097	3.238183	121.676000
55.422992	3.291361	121.722000
55.443834	3.346300	121.767000
55.464299	3.406793	121.813000
55.485067	3.483225	121.859000
55.507326	3.572217	121.905000
55.528805	3.655181	121.951000
55.549750	3.720211	121.997000
55.570596	3.764151	122.042000
55.590918	3.805517	122.088000
55.611863	3.853595	122.134000
55.633204	3.907260	122.180000
55.704495	4.109268	122.225000
55.725713	4.144457	122.381000
55.797108	4.176444	122.427000
55.817227	4.272961	122.583000
55.837838	4.292034	122.629000
55.859712	4.306787	122.674000
55.880988	4.320169	122.720000
55.903082	4.334766	122.766000
55.923197	4.348274	122.811000
55.943781	4.340286	122.857000
55.964584	4.315069	122.903000
55.984834	4.291409	122.949000
56.006478	4.283097	122.994000
56.027631	4.292401	123.040000
56.048691	4.319136	123.085000
56.069586	4.348244	123.132000
56.089636	4.378552	123.177000
56.110112	4.406959	123.223000
56.130762	4.424555	123.269000
56.204365	4.439217	123.314000
56.225314	4.455075	123.474000
56.297381	4.471530	123.519000
56.318426	4.587980	123.675000
56.339713	4.607323	123.721000
56.360432	4.601816	123.767000
56.381465	4.586581	123.813000
56.401945	4.566417	123.859000
56.423444	4.538553	123.904000
56.445042	4.503992	123.950000
56.465449	4.463893	123.996000
56.486544	4.429954	124.042000
56.506663	4.411072	124.087000
56.527443	4.418361	124.133000
56.548876	4.449936	124.179000
56.570186	4.473881	124.224000
56.591546	4.453494	124.271000
56.613064	4.396309	124.316000
56.632968	4.320573	124.362000
56.801136	3.996402	124.408000
56.821727	4.307891	124.774000
56.842914	4.416711	124.820000
56.863790	4.518256	124.866000
56.884858	4.617221	124.912000
56.906341	4.707711	124.958000
56.927348	4.775549	125.004000
56.947817	4.815852	125.049000
56.969023	4.840645	125.095000
56.989134	4.850978	125.141000
57.010183	4.854211	125.186000
57.031270	4.855021	125.232000
57.052715	4.867179	125.278000
57.074148	4.891814	125.324000
57.094774	4.927278	125.370000
57.114920	4.978028	125.415000
57.136177	5.040361	125.461000
57.402616	5.530931	125.507000
57.423534	5.662514	126.086000
57.444199	5.714570	126.132000
57.464179	5.773307	126.178000
57.486120	5.831269	126.223000
57.507230	5.898874	126.269000
57.527768	5.953093	126.315000
57.549047	5.996416	126.360000
57.569009	6.033348	126.406000
57.590269	6.067940	126.452000
57.610903	6.104538	126.498000
57.632747	6.142785	126.543000
57.653807	6.178963	126.589000
57.725463	6.180129	126.635000
57.746078	6.137925	126.791000
57.816958	6.079784	126.837000
57.838525	5.924227	126.993000
57.860385	5.917579	127.039000
57.881372	5.927443	127.084000
57.902067	5.944170	127.130000
57.922302	5.961810	127.176000
57.942939	5.984713	127.222000
57.963892	6.020994	127.268000
57.985383	6.068710	127.313000
58.006585	6.117415	127.359000
58.027688	6.163161	127.405000
58.048445	6.198346	127.451000
58.068752	6.224553	127.497000
58.089897	6.255566	127.542000
58.110431	6.302408	127.588000
58.131983	6.371511	127.634000
58.153178	6.451963	127.680000
58.225606	6.662609	127.725000
58.246436	6.705595	127.881000
58.317300	6.771923	127.927000
58.338365	6.944637	128.083000
58.359548	6.957554	128.129000
58.381138	6.959592	128.175000
58.401369	6.972953	128.221000
58.422468	6.992767	128.267000
58.443236	7.006608	128.312000
58.464431	7.019627	128.358000
58.485130	7.031401	128.404000
58.505906	7.052093	128.450000
58.527842	7.092089	128.495000
58.548822	7.153113	128.541000
58.569191	7.219388	128.587000
58.590324	7.281419	128.633000
58.611008	7.340305	128.679000
58.631504	7.395986	128.724000
58.652841	7.456012	128.770000
58.726110	7.670489	128.816000
58.747793	7.734974	128.974000
58.818189	7.774778	129.019000
58.839403	7.838055	129.175000
58.859207	7.874996	129.221000
58.880137	7.929321	129.267000
58.901769	7.997118	129.312000
58.923429	8.062975	129.358000
58.943752	8.112436	129.404000
58.964655	8.145237	129.450000
58.985027	8.169689	129.495000
59.005934	8.188329	129.541000
59.027275	8.211952	129.587000
59.048477	8.237164	129.632000
59.070617	8.278611	129.678000
59.090479	8.329462	129.724000
59.111297	8.382990	129.770000
59.132918	8.432334	129.815000
59.152519	8.475980	129.861000
59.229980	8.562643	129.907000
59.250852	8.585965	130.074000
59.322431	8.609942	130.119000
59.342661	8.663118	130.275000
59.364175	8.684560	130.321000
59.385501	8.705925	130.367000
59.406607	8.722312	130.413000
59.427479	8.726396	130.459000
59.448013	8.722090	130.504000
59.468536	8.712978	130.550000
59.489619	8.703279	130.596000
59.510291	8.696884	130.642000
59.532462	8.699303	130.688000
59.553288	8.711371	130.733000
59.574030	8.740599	130.779000
59.594925	8.781231	130.825000
59.615639	8.836139	130.870000
59.636488	8.895784	130.916000
59.657602	8.957123	130.962000
59.922478	9.281779	131.008000
59.943546	9.590275	131.586000
59.964779	9.654169	131.632000
59.986170	9.694562	131.678000
60.007369	9.691549	131.723000
60.027757	9.656825	131.769000
60.048091	9.614877	131.815000
60.068760	9.583319	131.860000
60.090070	9.564530	131.906000
60.111038	9.561213	131.952000
60.132913	9.574816	131.998000
60.153074	9.603335	132.044000
60.174453	9.637038	132.090000
60.245813	9.780353	132.135000
60.266516	9.839929	132.291000
60.338629	9.862811	132.337000
60.359759	9.834074	132.493000
60.379636	9.847298	132.539000
60.400973	9.877560	132.584000
60.422183	9.941290	132.630000
60.442721	10.025722	132.676000
60.464377	10.115128	132.722000
60.485460	10.213713	132.767000
60.506110	10.317601	132.813000
60.527012	10.406081	132.859000
60.547431	10.466146	132.905000
60.568618	10.500728	132.951000
60.589245	10.531599	132.996000
60.610366	10.559684	133.042000
60.632088	10.595146	133.088000
60.652614	10.631453	133.133000
60.672979	10.656282	133.179000
60.744416	10.697808	133.225000
60.765138	10.771631	133.381000
60.838135	10.884933	133.426000
60.858799	11.271423	133.582000
60.879752	11.320928	133.628000
60.900455	11.335273	133.674000
60.921262	11.336700	133.719000
60.942023	11.335837	133.766000
60.963072	11.335886	133.811000
60.984574	11.334481	133.857000
61.006107	11.329592	133.903000
61.026760	11.333691	133.949000
61.047374	11.349283	133.994000
61.068193	11.378511	134.040000
61.088735	11.411635	134.086000
61.109349	11.456256	134.132000
61.130840	11.518939	134.177000
61.152369	11.595968	134.223000
61.173521	11.686656	134.269000
61.246276	11.987567	134.315000
61.266802	12.083015	134.474000
61.337287	12.193648	134.520000
61.358689	12.544792	134.675000
61.379911	12.634814	134.721000
61.401624	12.730853	134.767000
61.422704	12.828436	134.813000
61.443253	12.920832	134.859000
61.464029	13.014016	134.905000
61.484867	13.111019	134.951000
61.505562	13.205021	134.996000
61.527010	13.276759	135.042000
61.548247	13.319496	135.088000
61.568943	13.349330	135.133000
61.590245	13.375985	135.179000
61.610871	13.397737	135.225000
61.631824	13.421166	135.271000
61.653438	13.438640	135.317000
61.673407	13.451884	135.362000
61.749293	13.524478	135.408000
61.769642	13.543378	135.574000
61.842117	13.550615	135.620000
61.863373	13.561433	135.775000
61.884806	13.587227	135.821000
61.905447	13.625619	135.867000
61.926081	13.667095	135.913000
61.947345	13.712996	135.958000
61.968521	13.761012	136.004000
61.989785	13.809758	136.050000
62.011279	13.856278	136.096000
62.031979	13.898583	136.142000
62.052662	13.933481	136.187000
62.073181	13.965179	136.233000
62.094480	13.996550	136.279000
62.115336	14.028911	136.324000
62.136504	14.061597	136.370000
62.157703	14.093008	136.416000
62.179032	14.124994	136.462000
62.443220	14.445544	136.508000
62.464653	14.720723	137.087000
62.485764	14.800021	137.133000
62.505848	14.893797	137.179000
62.526851	15.006296	137.224000
62.548649	15.129373	137.270000
62.569298	15.261615	137.316000
62.591246	15.395778	137.362000
62.611907	15.531956	137.407000
62.633128	15.670442	137.453000
62.653935	15.812785	137.499000
62.674884	15.942634	137.545000
62.695580	16.042952	137.591000
62.766724	16.220244	137.637000
62.788565	16.274423	137.793000
62.860098	16.344742	137.839000
62.881066	16.714679	137.994000
62.901573	16.835824	138.040000
62.922460	16.951195	138.086000
62.943094	17.070501	138.132000
62.964381	17.199836	138.177000
62.986033	17.334443	138.223000
63.007174	17.471441	138.269000
63.027658	17.608635	138.314000
63.048385	17.744077	138.360000
63.069595	17.882569	138.406000
63.090037	18.022169	138.452000
63.111873	18.165759	138.498000
63.132457	18.303327	138.544000
63.153214	18.429797	138.590000
63.174827	18.558416	138.636000
63.195577	18.683982	138.682000
63.265892	19.058441	138.728000
63.287144	19.169164	138.883000
63.359457	19.277331	138.928000
63.380448	19.602939	139.084000
63.401574	19.685172	139.130000
63.422192	19.757323	139.176000
63.442700	19.829122	139.221000
63.463656	19.905203	139.267000
63.484901	19.977192	139.313000
63.506111	20.046398	139.359000
63.527083	20.122590	139.405000
63.547848	20.206560	139.450000
63.568240	20.291072	139.496000
63.589407	20.376992	139.542000
63.610160	20.469415	139.588000
63.631755	20.574062	139.633000
63.653426	20.691337	139.679000
63.673737	20.817538	139.725000
63.694502	20.938436	139.771000
63.766484	21.246443	139.817000
63.787276	21.308334	139.974000
63.859469	21.366661	140.020000
63.881091	21.580488	140.176000
63.901851	21.663835	140.222000
63.922535	21.760556	140.268000
63.943561	21.874876	140.313000
63.964276	22.000484	140.359000
63.985129	22.124499	140.405000
64.006423	22.250355	140.451000
64.027549	22.371147	140.497000
64.048552	22.486435	140.542000
64.069212	22.600040	140.588000
64.089716	22.708547	140.633000
64.110557	22.818080	140.679000
64.131548	22.939139	140.725000
64.152528	23.067099	140.771000
64.174391	23.192558	140.817000
64.194330	23.305795	140.862000
64.269612	23.609471	140.908000
64.291249	23.698647	141.074000
64.364007	23.794944	141.120000
64.384461	24.153234	141.276000
64.405237	24.256181	141.322000
64.426101	24.365117	141.367000
64.447127	24.471340	141.413000
64.468399	24.585388	141.459000
64.488960	24.701864	141.505000
64.510404	24.825496	141.551000
64.531080	24.950415	141.597000
64.552125	25.074378	141.642000
64.572809	25.195059	141.688000
64.593931	25.319647	141.734000
64.614538	25.443883	141.780000
64.636144	25.571614	141.825000
64.657773	25.703938	141.871000
64.678703	25.841465	141.917000
64.699356	25.982007	141.963000
64.964320	27.185741	142.008000
64.985027	27.831774	142.587000
65.006287	27.955531	142.633000
65.027385	28.095029	142.679000
65.048138	28.272773	142.724000
65.069230	28.484693	142.770000
65.090766	28.697313	142.816000
65.111227	28.893751	142.862000
65.132050	29.070482	142.907000
65.152534	29.237184	142.953000
65.173640	29.394453	142.999000
65.194639	29.544176	143.045000
65.215807	29.692479	143.090000
65.287762	30.176690	143.136000
65.308485	30.324760	143.292000
65.379787	30.469964	143.337000
65.400586	30.956369	143.493000
65.421562	31.090529	143.539000
65.442584	31.216629	143.585000
65.464029	31.335086	143.630000
65.484820	31.449480	143.676000
65.505273	31.567553	143.722000
65.526226	31.690505	143.768000
65.547187	31.821429	143.814000
65.567955	31.953027	143.859000
65.589392	32.078609	143.905000
65.610468	32.207590	143.951000
65.631497	32.344738	143.996000
65.652196	32.503462	144.042000
65.673003	32.678253	144.088000
65.693510	32.862357	144.134000
65.714801	33.052741	144.179000
65.786695	33.733022	144.225000
65.807694	33.926964	144.381000
65.879143	34.116859	144.426000
65.899358	34.788700	144.582000
65.920495	35.015015	144.628000
65.942016	35.228048	144.674000
65.962554	35.422302	144.719000
65.983407	35.599528	144.765000
66.004068	35.762138	144.811000
66.024921	35.911803	144.856000
66.045651	36.057541	144.902000
66.067679	36.192157	144.948000
66.088647	36.323768	144.994000
66.110445	36.470473	145.039000
66.131291	36.646524	145.085000
66.151452	36.843672	145.131000
66.172843	37.048496	145.177000
66.193212	37.254840	145.222000
66.213942	37.457407	145.268000
66.287196	38.086364	145.314000
66.308886	38.248317	145.474000
66.380212	38.400732	145.520000
66.400673	38.867368	145.676000
66.421134	39.024109	145.722000
66.442086	39.197335	145.767000
66.463032	39.370531	145.813000
66.484169	39.549150	145.858000
66.505367	39.723245	145.904000
66.526174	39.886971	145.950000
66.547550	40.034051	145.996000
66.568233	40.149438	146.041000
66.588986	40.266931	146.087000
66.610093	40.401785	146.132000
66.631668	40.549711	146.178000
66.652713	40.707754	146.224000
66.673259	40.873300	146.269000
66.694357	41.050452	146.315000
66.714749	41.239888	146.360000
66.792183	42.001637	146.406000
66.813328	42.202564	146.574000
66.883939	42.371701	146.620000
66.904792	42.812605	146.776000
66.925491	42.926062	146.822000
66.946997	43.042185	146.867000
66.967719	43.173272	146.913000
66.989033	43.320937	146.958000
67.009802	43.477363	147.004000
67.030263	43.635692	147.050000
67.051000	43.797899	147.095000
67.071853	43.971971	147.141000
67.093152	44.154874	147.187000
67.114466	44.342881	147.232000
67.135211	44.527200	147.278000
67.155987	44.709345	147.324000
67.176525	44.909869	147.369000
67.197232	45.120412	147.415000
67.217923	45.336528	147.461000
67.484608	46.845082	147.507000
67.505185	47.856596	148.087000
67.526268	48.044372	148.133000
