Sample	2mm tape 
date	07/01/2025
	
Temperature (K)	77.00
Angle (deg.)	0.000000
field / T	0.000000
	
		
Approx. trace time (s)	120.0	
		
Current / A	V1  -sample/ uV	time/s
-0.000519	-1.581419	0.000000
-0.000089	-1.616258	0.118000
-0.000197	-1.652435	0.164000
-0.000489	-1.774017	0.320000
-0.000209	-1.784248	0.366000
0.000108	-1.787359	0.412000
-0.000412	-1.794666	0.458000
-0.000453	-1.788533	0.504000
0.000072	-1.784440	0.550000
0.006373	-1.803857	0.595000
-0.018986	-1.827012	0.641000
-0.022576	-1.875088	0.687000
-0.022236	-1.904161	0.733000
-0.022916	-1.923770	0.778000
-0.023472	-1.942708	0.825000
-0.023077	-1.957133	0.871000
-0.022402	-1.965770	0.916000
-0.022749	-1.965750	0.962000
-0.022999	-1.958103	1.008000
0.243761	-1.972614	1.054000
0.270417	-2.191031	1.617000
0.297865	-2.215364	1.663000
0.324914	-2.232098	1.709000
0.351665	-2.242264	1.755000
0.377822	-2.257507	1.800000
0.403920	-2.283218	1.846000
0.430904	-2.315692	1.892000
0.456972	-2.357117	1.938000
0.483724	-2.403189	1.983000
0.511347	-2.453360	2.029000
0.538526	-2.504535	2.075000
0.564351	-2.539620	2.121000
0.654770	-2.488014	2.167000
0.680613	-2.470086	2.323000
0.773211	-2.451184	2.368000
0.799840	-2.438864	2.525000
0.827002	-2.426932	2.571000
0.853102	-2.410785	2.616000
0.879094	-2.398233	2.662000
0.906501	-2.391318	2.708000
0.932822	-2.382308	2.754000
0.960624	-2.362346	2.800000
0.987121	-2.328567	2.846000
1.013884	-2.287629	2.892000
1.040734	-2.236950	2.937000
1.066494	-2.178424	2.983000
1.093399	-2.112658	3.029000
1.120081	-2.043628	3.075000
1.146532	-1.984097	3.121000
1.173528	-1.949215	3.166000
1.200708	-1.948220	3.212000
1.293740	-2.143945	3.258000
1.320240	-2.226623	3.418000
1.410621	-2.309040	3.464000
1.437497	-2.604842	3.619000
1.464103	-2.679965	3.665000
1.490429	-2.741311	3.711000
1.518613	-2.785990	3.756000
1.545406	-2.812641	3.802000
1.571074	-2.824552	3.848000
1.598111	-2.828610	3.894000
1.624219	-2.835848	3.940000
1.651046	-2.844646	3.986000
1.678579	-2.846796	4.032000
1.706478	-2.839618	4.077000
1.732300	-2.826500	4.123000
1.758348	-2.808099	4.169000
1.785303	-2.788808	4.215000
1.811228	-2.774088	4.260000
1.838241	-2.765347	4.306000
1.936358	-2.738899	4.352000
1.962312	-2.727290	4.518000
2.053228	-2.714334	4.564000
2.080199	-2.556680	4.719000
2.107463	-2.511571	4.765000
2.133805	-2.457367	4.811000
2.159561	-2.403627	4.857000
2.186753	-2.382773	4.903000
2.212900	-2.411674	4.949000
2.239249	-2.501728	4.994000
2.266727	-2.623371	5.040000
2.294487	-2.716342	5.086000
2.320949	-2.786934	5.132000
2.347199	-2.856831	5.178000
2.374254	-2.922562	5.223000
2.401069	-2.977207	5.269000
2.427149	-3.023659	5.315000
2.453643	-3.055030	5.361000
2.481176	-3.065116	5.407000
2.577474	-3.193797	5.453000
2.603866	-3.234560	5.618000
2.695532	-3.237128	5.664000
2.721864	-3.075754	5.820000
2.748680	-3.012917	5.865000
2.775117	-2.979675	5.911000
2.801432	-2.973904	5.957000
2.828527	-2.981324	6.003000
2.855331	-2.986203	6.049000
2.883827	-2.973269	6.095000
2.909196	-2.938962	6.140000
2.936633	-2.887710	6.186000
2.963055	-2.833229	6.232000
2.989248	-2.777455	6.278000
3.015574	-2.714832	6.324000
3.042505	-2.644981	6.369000
3.069525	-2.571104	6.415000
3.096416	-2.499809	6.461000
3.123478	-2.435905	6.507000
3.452015	-2.041884	6.553000
3.479448	-2.297603	7.118000
3.505414	-2.389586	7.163000
3.532949	-2.475026	7.209000
3.558493	-2.551821	7.255000
3.585241	-2.619116	7.301000
3.611741	-2.681692	7.347000
3.638444	-2.737126	7.393000
3.665966	-2.784043	7.438000
3.693391	-2.824563	7.484000
3.719437	-2.856872	7.530000
3.745744	-2.877848	7.576000
3.772863	-2.885938	7.622000
3.863135	-2.857179	7.668000
3.890310	-2.857654	7.823000
3.981294	-2.858506	7.868000
4.008342	-2.781913	8.025000
4.034732	-2.743643	8.071000
4.061196	-2.699615	8.117000
4.087297	-2.615111	8.162000
4.115173	-2.506497	8.208000
4.142444	-2.408281	8.254000
4.169230	-2.346553	8.300000
4.196416	-2.321643	8.346000
4.222890	-2.298840	8.391000
4.249336	-2.276092	8.437000
4.276158	-2.242426	8.483000
4.302885	-2.199554	8.528000
4.329750	-2.155155	8.575000
4.356553	-2.108555	8.620000
4.382753	-2.063679	8.666000
4.409552	-2.025764	8.712000
4.503429	-1.961838	8.758000
4.529766	-1.946202	8.919000
4.619706	-1.961086	8.964000
4.647359	-2.225731	9.120000
4.675041	-2.298497	9.165000
4.702036	-2.344280	9.211000
4.728654	-2.375777	9.257000
4.754885	-2.411675	9.303000
4.781352	-2.463342	9.349000
4.807925	-2.525427	9.395000
4.835255	-2.581371	9.440000
4.862458	-2.613356	9.486000
4.889025	-2.622126	9.532000
4.915195	-2.618623	9.578000
4.941344	-2.605645	9.623000
4.967679	-2.595267	9.669000
4.994586	-2.594102	9.715000
5.021127	-2.604420	9.760000
5.048197	-2.618985	9.806000
5.144252	-2.444694	9.852000
5.171355	-2.423404	10.018000
5.262939	-2.457327	10.064000
5.289606	-2.672114	10.220000
5.316298	-2.708302	10.266000
5.343001	-2.711891	10.311000
5.369152	-2.681334	10.357000
5.395807	-2.645618	10.403000
5.422737	-2.595338	10.449000
5.450308	-2.544145	10.495000
5.476554	-2.501334	10.540000
5.503306	-2.463988	10.586000
5.529995	-2.435458	10.632000
5.555692	-2.416561	10.677000
5.583119	-2.405511	10.723000
5.609642	-2.407702	10.769000
5.637204	-2.423596	10.815000
5.664056	-2.444179	10.861000
5.690566	-2.445870	10.907000
5.787181	-2.388916	10.952000
5.814456	-2.404835	11.118000
5.904555	-2.427074	11.164000
5.931456	-2.472486	11.320000
5.957488	-2.477486	11.366000
5.983544	-2.480137	11.411000
6.011307	-2.460324	11.457000
6.038809	-2.430026	11.503000
6.065641	-2.405970	11.548000
6.091927	-2.394038	11.594000
6.118223	-2.398314	11.640000
6.144744	-2.417030	11.686000
6.171891	-2.442130	11.731000
6.197760	-2.467512	11.777000
6.225327	-2.490495	11.823000
6.252412	-2.510040	11.869000
6.279120	-2.527544	11.915000
6.304990	-2.543123	11.961000
6.331500	-2.558797	12.006000
6.662481	-2.824573	12.052000
6.689291	-2.891238	12.618000
6.715455	-2.889028	12.664000
6.742114	-2.890194	12.709000
6.768920	-2.898883	12.755000
6.795071	-2.912607	12.801000
6.822705	-2.926507	12.847000
6.849620	-2.937969	12.893000
6.876232	-2.940207	12.938000
6.902702	-2.930822	12.984000
6.928819	-2.911251	13.030000
6.955455	-2.881194	13.076000
6.982971	-2.844171	13.122000
7.074388	-2.704562	13.168000
7.101414	-2.669220	13.323000
7.191346	-2.637512	13.369000
7.217505	-2.559643	13.525000
7.243979	-2.531565	13.571000
7.271266	-2.498553	13.617000
7.298418	-2.461765	13.663000
7.325019	-2.425120	13.709000
7.352229	-2.391246	13.754000
7.377857	-2.358867	13.800000
7.404564	-2.329467	13.845000
7.431482	-2.305673	13.891000
7.458370	-2.285938	13.937000
7.485218	-2.274390	13.983000
7.512039	-2.270568	14.029000
7.538671	-2.270009	14.075000
7.564930	-2.269877	14.120000
7.591283	-2.270841	14.166000
7.617520	-2.267404	14.212000
7.711866	-2.235462	14.258000
7.738977	-2.225449	14.418000
7.830160	-2.213676	14.465000
7.857227	-2.181826	14.621000
7.883559	-2.173133	14.667000
7.910362	-2.167613	14.713000
7.936915	-2.163320	14.759000
7.962968	-2.163718	14.804000
7.989870	-2.169212	14.850000
8.017282	-2.180239	14.896000
8.045056	-2.194483	14.942000
8.070975	-2.207944	14.988000
8.097226	-2.224496	15.034000
8.124005	-2.236848	15.080000
8.150034	-2.246347	15.125000
8.176437	-2.253676	15.171000
8.203630	-2.257134	15.217000
8.230726	-2.258859	15.262000
8.258569	-2.260227	15.309000
8.353623	-2.259985	15.354000
8.381241	-2.259254	15.519000
8.472607	-2.258809	15.565000
8.498755	-2.272048	15.721000
8.525647	-2.280543	15.767000
8.551682	-2.295407	15.812000
8.578138	-2.315183	15.858000
8.605455	-2.337821	15.904000
8.633077	-2.363462	15.950000
8.659236	-2.392555	15.996000
8.685574	-2.424459	16.042000
8.712162	-2.458746	16.087000
8.738464	-2.495887	16.133000
8.765189	-2.534892	16.179000
8.792481	-2.574305	16.225000
8.819461	-2.612792	16.271000
8.846180	-2.646611	16.316000
8.872574	-2.675620	16.362000
8.899294	-2.701988	16.408000
8.995979	-2.764852	16.454000
9.022045	-2.779551	16.619000
9.112033	-2.795591	16.665000
9.137913	-2.862115	16.820000
9.165506	-2.888826	16.866000
9.192100	-2.914733	16.912000
9.219805	-2.939154	16.958000
9.245547	-2.961739	17.003000
9.272382	-2.980890	17.049000
9.299036	-2.997936	17.095000
9.325595	-3.015278	17.141000
9.352422	-3.030988	17.187000
9.379763	-3.047833	17.232000
9.407171	-3.071240	17.278000
9.433913	-3.096830	17.324000
9.460216	-3.118626	17.370000
9.486293	-3.130640	17.416000
9.512736	-3.130367	17.461000
9.539497	-3.123613	17.507000
9.868839	-2.967850	17.553000
9.895799	-3.077422	18.118000
9.922692	-3.150042	18.164000
9.948964	-3.179978	18.210000
9.976484	-3.075553	18.255000
10.003659	-2.907688	18.301000
10.030020	-2.782281	18.347000
10.056183	-2.630667	18.393000
10.082385	-2.422450	18.439000
10.109068	-2.269544	18.485000
10.135814	-2.084513	18.531000
10.162929	-1.996498	18.576000
10.189836	-1.906957	18.622000
10.280224	-1.665423	18.668000
10.306705	-1.563980	18.823000
10.398102	-1.447203	18.869000
10.424368	-1.242308	19.025000
10.451824	-1.211004	19.071000
10.479213	-1.177486	19.117000
10.506070	-1.134661	19.163000
10.532147	-1.121573	19.209000
10.558340	-1.118807	19.255000
10.585229	-1.113786	19.300000
10.611590	-1.172286	19.346000
10.638889	-1.190414	19.392000
10.665808	-1.186589	19.438000
10.692808	-1.204799	19.484000
10.719240	-1.225695	19.530000
10.745143	-1.195111	19.575000
10.771830	-1.216926	19.621000
10.798645	-1.232434	19.667000
10.825515	-1.181922	19.713000
10.919232	-1.004398	19.759000
10.946436	-0.982014	19.919000
11.036535	-0.955474	19.965000
11.062854	-0.647117	20.120000
11.089454	-0.588814	20.166000
11.115391	-0.551680	20.212000
11.142260	-0.524631	20.257000
11.169939	-0.516698	20.303000
11.196976	-0.533107	20.349000
11.223296	-0.569735	20.395000
11.248958	-0.606777	20.440000
11.275525	-0.636149	20.486000
11.302375	-0.662456	20.531000
11.329293	-0.686677	20.577000
11.356528	-0.708947	20.623000
11.383744	-0.738973	20.669000
11.410540	-0.777298	20.715000
11.436719	-0.825547	20.760000
11.463140	-0.880694	20.806000
11.561128	-1.086141	20.852000
11.587465	-1.148531	21.019000
11.677864	-1.201559	21.065000
11.705001	-1.324325	21.221000
11.731666	-1.356405	21.267000
11.758477	-1.385051	21.313000
11.785963	-1.409878	21.359000
11.812810	-1.429911	21.404000
11.838555	-1.446230	21.450000
11.865341	-1.456966	21.496000
11.891941	-1.460690	21.542000
11.918570	-1.457848	21.588000
11.944958	-1.451726	21.634000
11.972479	-1.443878	21.679000
11.999587	-1.437796	21.725000
12.026451	-1.432098	21.771000
12.052632	-1.426515	21.817000
12.078615	-1.416557	21.863000
12.105563	-1.400965	21.909000
12.202222	-1.315454	21.955000
12.228646	-1.295818	22.119000
12.319975	-1.271747	22.165000
12.346627	-1.167921	22.321000
12.374170	-1.153811	22.367000
12.401087	-1.150516	22.413000
12.426978	-1.147149	22.459000
12.453582	-1.141636	22.505000
12.479932	-1.129145	22.550000
12.506346	-1.111091	22.596000
12.533391	-1.075850	22.642000
12.560455	-1.020793	22.687000
12.587246	-0.954878	22.733000
12.614331	-0.892792	22.779000
12.640836	-0.840375	22.825000
12.667267	-0.798325	22.871000
12.693664	-0.770413	22.917000
12.720098	-0.759108	22.962000
12.747600	-0.758246	23.008000
13.076381	-0.757934	23.054000
13.103179	-0.693875	23.618000
13.130538	-0.696439	23.664000
13.157977	-0.721560	23.710000
13.184857	-0.760483	23.756000
13.210679	-0.798204	23.802000
13.236419	-0.830335	23.847000
13.263461	-0.854658	23.893000
13.290378	-0.873790	23.939000
13.317248	-0.890221	23.985000
13.344375	-0.908300	24.031000
13.370509	-0.927659	24.077000
13.397587	-0.947004	24.122000
13.487892	-1.003621	24.168000
13.514766	-1.012853	24.324000
13.606107	-1.017507	24.369000
13.633622	-1.009295	24.526000
13.660163	-1.005983	24.572000
13.686381	-1.002395	24.617000
13.712273	-1.002395	24.663000
13.739807	-1.004298	24.709000
13.765969	-1.005504	24.754000
13.793324	-1.004419	24.801000
13.820096	-0.999765	24.847000
13.847196	-0.990064	24.892000
13.873301	-0.976805	24.938000
13.899966	-0.964364	24.984000
13.926537	-0.953062	25.030000
13.953094	-0.944221	25.076000
13.980090	-0.934216	25.121000
14.007266	-0.921474	25.167000
14.034295	-0.907190	25.213000
14.128602	-0.840415	25.259000
14.154807	-0.837230	25.419000
14.244671	-0.849405	25.465000
14.272023	-0.995814	25.621000
14.298356	-1.043848	25.667000
14.325159	-1.087857	25.713000
14.352786	-1.126268	25.759000
14.379457	-1.162633	25.804000
14.405336	-1.200933	25.850000
14.431977	-1.240423	25.896000
14.458379	-1.277149	25.942000
14.485237	-1.305716	25.988000
14.511851	-1.319970	26.033000
14.538952	-1.324254	26.079000
14.565917	-1.330257	26.125000
14.592050	-1.324274	26.171000
14.618926	-1.299976	26.216000
14.644827	-1.272942	26.262000
14.671990	-1.250448	26.308000
14.768358	-1.196761	26.354000
14.795035	-1.183672	26.519000
14.885982	-1.177942	26.565000
14.913326	-1.164398	26.721000
14.940530	-1.151752	26.767000
14.968132	-1.142530	26.813000
14.993486	-1.134102	26.859000
15.019907	-1.125273	26.905000
15.046476	-1.116839	26.950000
15.073120	-1.110444	26.996000
15.099715	-1.097547	27.042000
15.126592	-1.082442	27.088000
15.153503	-1.074088	27.134000
15.180255	-1.067376	27.180000
15.206729	-1.056620	27.225000
15.232339	-1.042834	27.271000
15.259183	-1.024799	27.317000
15.286110	-1.006033	27.363000
15.313625	-0.988929	27.408000
15.409542	-1.018844	27.454000
15.436406	-1.052990	27.619000
15.528166	-1.090003	27.665000
15.554724	-1.170299	27.821000
15.580936	-1.188636	27.867000
15.607565	-1.215863	27.913000
15.633833	-1.229651	27.959000
15.660469	-1.220105	28.004000
15.687244	-1.215549	28.050000
15.714610	-1.211220	28.096000
15.741211	-1.191669	28.142000
15.768014	-1.172718	28.188000
15.794566	-1.164397	28.234000
15.820607	-1.167539	28.280000
15.847381	-1.176413	28.325000
15.874181	-1.185606	28.371000
15.902288	-1.197753	28.417000
15.929442	-1.202723	28.463000
15.955956	-1.190495	28.509000
16.283479	-0.996166	28.554000
16.311651	-0.869974	29.118000
16.338372	-0.849153	29.164000
16.364638	-0.846164	29.210000
16.390542	-0.862433	29.256000
16.417114	-0.889248	29.302000
16.444413	-0.920562	29.348000
16.471455	-0.947945	29.394000
16.498647	-0.968734	29.439000
16.525108	-0.980767	29.485000
16.551031	-0.982229	29.531000
16.577759	-0.974452	29.576000
16.605372	-0.962854	29.623000
16.695960	-0.978925	29.668000
16.722792	-0.989660	29.824000
16.812785	-0.996006	29.869000
16.839122	-1.080514	30.025000
16.866340	-1.127565	30.071000
16.892860	-1.175452	30.116000
16.919831	-1.216664	30.162000
16.947049	-1.249868	30.208000
16.973836	-1.269328	30.254000
17.000259	-1.273445	30.300000
17.026857	-1.264142	30.345000
17.052564	-1.252604	30.391000
17.079796	-1.241840	30.437000
17.106010	-1.234889	30.483000
17.133611	-1.235534	30.529000
17.160258	-1.246093	30.575000
17.187257	-1.264469	30.621000
17.213656	-1.284835	30.666000
17.240119	-1.304940	30.712000
17.334372	-1.350885	30.758000
17.361416	-1.366394	30.919000
17.451743	-1.380326	30.965000
17.479265	-1.373930	31.120000
17.505775	-1.360820	31.166000
17.532417	-1.335700	31.212000
17.558487	-1.305907	31.258000
17.584144	-1.280853	31.304000
17.611574	-1.263759	31.350000
17.637777	-1.251254	31.395000
17.666182	-1.247286	31.441000
17.692888	-1.249434	31.487000
17.719427	-1.258249	31.533000
17.745841	-1.273586	31.578000
17.772379	-1.300036	31.624000
17.798593	-1.331944	31.670000
17.825825	-1.359469	31.716000
17.852450	-1.381653	31.762000
17.879661	-1.406178	31.807000
17.976121	-1.503956	31.853000
18.002722	-1.537330	32.019000
18.094080	-1.573938	32.065000
18.121087	-1.653035	32.221000
18.146988	-1.646826	32.266000
18.172735	-1.627724	32.312000
18.199929	-1.553592	32.358000
18.227186	-1.362054	32.404000
18.254750	-1.077202	32.449000
18.281493	-0.850307	32.495000
18.307795	-0.675921	32.541000
18.334455	-0.538340	32.587000
18.360751	-0.325382	32.632000
18.386969	-0.011529	32.678000
18.413493	0.407988	32.724000
18.440640	0.843683	32.770000
18.467926	1.284997	32.816000
18.494422	1.623283	32.861000
18.520489	1.967172	32.907000
18.618249	2.184466	32.953000
18.645669	2.066981	33.119000
18.736230	1.977453	33.165000
18.762562	2.224515	33.322000
18.789012	2.424224	33.368000
18.815954	2.656920	33.413000
18.842852	2.751000	33.459000
18.870420	2.761817	33.505000
18.897787	2.759772	33.551000
18.924175	2.777717	33.597000
18.950616	2.785631	33.643000
18.976870	2.801449	33.688000
19.002896	2.793358	33.734000
19.029510	2.787115	33.780000
19.056703	2.791920	33.826000
19.083747	2.781759	33.872000
19.110299	2.770211	33.918000
19.136813	2.767465	33.963000
19.162691	2.823800	34.009000
19.492571	2.992178	34.055000
19.519090	2.666446	34.619000
19.545652	2.555551	34.664000
19.571645	2.438499	34.710000
19.598791	2.325893	34.756000
19.625998	2.267993	34.802000
19.653616	2.260241	34.847000
19.680126	2.321068	34.893000
19.706297	2.379250	34.939000
19.732859	2.391995	34.985000
19.758914	2.385363	35.031000
19.785894	2.414967	35.076000
19.812802	2.409178	35.122000
19.905345	2.373421	35.168000
19.931192	2.375055	35.324000
20.021698	2.351706	35.370000
20.048152	2.283148	35.526000
20.075128	2.269096	35.572000
20.102182	2.275741	35.618000
20.129667	2.273432	35.663000
20.155778	2.273976	35.709000
20.182409	2.264167	35.755000
20.208780	2.229223	35.801000
20.235455	2.176426	35.846000
20.262094	2.117744	35.892000
20.288836	2.047194	35.938000
20.316433	1.967727	35.983000
20.343398	1.883361	36.030000
20.370006	1.795624	36.076000
20.395872	1.714503	36.122000
20.422555	1.658732	36.167000
20.449076	1.603866	36.213000
20.542864	1.418322	36.259000
20.569543	1.375520	36.420000
20.661975	1.324295	36.465000
20.688904	1.096590	36.622000
20.714978	1.025865	36.668000
20.741372	0.959319	36.713000
20.768455	0.893792	36.759000
20.794851	0.833164	36.805000
20.822191	0.780153	36.851000
20.849131	0.738070	36.897000
20.875462	0.705730	36.942000
20.902193	0.677667	36.988000
20.928480	0.642212	37.034000
20.955078	0.600080	37.080000
20.981321	0.560201	37.126000
21.008128	0.530036	37.171000
21.035499	0.501981	37.217000
21.062971	0.474478	37.263000
21.088513	0.450607	37.309000
21.184721	0.391656	37.354000
21.211815	0.378994	37.520000
21.302877	0.369529	37.566000
21.328621	0.366671	37.722000
21.355444	0.370622	37.767000
21.382000	0.367916	37.813000
21.409247	0.359101	37.859000
21.436370	0.347366	37.905000
21.462570	0.341268	37.951000
21.489168	0.344609	37.996000
21.515505	0.358430	38.042000
21.541894	0.375471	38.087000
21.568510	0.393228	38.134000
21.596057	0.415975	38.179000
21.623519	0.442548	38.225000
21.650031	0.473091	38.271000
21.676931	0.504079	38.317000
21.703387	0.532817	38.362000
21.729325	0.555669	38.408000
21.826808	0.569138	38.454000
21.853545	0.556325	38.620000
21.943922	0.546949	38.666000
21.970566	0.489562	38.822000
21.997671	0.460162	38.868000
22.024828	0.432638	38.913000
22.051603	0.409503	38.959000
22.078399	0.389327	39.005000
22.104715	0.370683	39.051000
22.131181	0.350208	39.097000
22.157804	0.327399	39.143000
22.184483	0.302836	39.188000
22.211550	0.275615	39.234000
22.238947	0.251636	39.280000
22.265209	0.230223	39.326000
22.291844	0.209573	39.371000
22.318365	0.193921	39.417000
22.344543	0.183841	39.463000
22.371610	0.174973	39.509000
22.700494	0.178298	39.555000
22.726618	0.197051	40.118000
22.753180	0.196880	40.165000
22.780479	0.198585	40.210000
22.807715	0.202770	40.256000
22.834668	0.212859	40.302000
22.860529	0.229047	40.348000
22.887246	0.245931	40.394000
22.914231	0.253856	40.440000
22.940861	0.253634	40.485000
22.967780	0.251565	40.531000
22.994961	0.259929	40.577000
23.021495	0.270932	40.622000
23.111914	0.248647	40.668000
23.138572	0.251182	40.824000
23.228743	0.255124	40.870000
23.255889	0.276943	41.025000
23.282564	0.280023	41.071000
23.309982	0.283096	41.117000
23.335701	0.280977	41.163000
23.362355	0.271861	41.209000
23.388490	0.260388	41.255000
23.415507	0.253978	41.300000
23.443333	0.251030	41.346000
23.470559	0.252337	41.392000
23.497113	0.260428	41.438000
23.523548	0.267273	41.483000
23.549729	0.273638	41.529000
23.575913	0.275878	41.575000
23.602989	0.276232	41.621000
23.629891	0.277327	41.666000
23.657265	0.283379	41.712000
23.751339	0.320262	41.758000
23.777724	0.316016	41.920000
23.868237	0.305451	41.966000
23.894175	0.255023	42.121000
23.921434	0.235659	42.167000
23.948284	0.211285	42.212000
23.975437	0.183861	42.258000
24.003312	0.154595	42.305000
24.029046	0.123851	42.350000
24.055466	0.095687	42.396000
24.082118	0.068725	42.442000
24.109118	0.044614	42.488000
24.134876	0.035260	42.533000
24.162076	0.034886	42.579000
24.189794	0.036373	42.625000
24.215896	0.038742	42.670000
24.242925	0.045829	42.716000
24.268862	0.055524	42.763000
24.295480	0.065404	42.809000
24.393665	0.152374	42.854000
24.419919	0.198463	43.020000
24.509712	0.264899	43.066000
24.536283	0.448390	43.221000
24.563809	0.477188	43.267000
24.590928	0.496790	43.313000
24.617215	0.510932	43.359000
24.643754	0.523371	43.404000
24.670507	0.539410	43.450000
24.697061	0.548105	43.496000
24.723412	0.554616	43.542000
24.750492	0.562177	43.587000
24.777745	0.573580	43.633000
24.804476	0.588178	43.679000
24.830951	0.599076	43.725000
24.856893	0.597636	43.770000
24.883669	0.582449	43.816000
24.910222	0.561803	43.862000
24.937650	0.543649	43.908000
25.033979	0.520873	43.954000
25.061543	0.523789	44.120000
25.151720	0.529405	44.166000
25.179031	0.581555	44.322000
25.205793	0.608746	44.368000
25.232777	0.633858	44.414000
25.259262	0.649717	44.460000
25.286054	0.657959	44.505000
25.312481	0.672941	44.551000
25.339515	0.693430	44.597000
25.366396	0.714073	44.643000
25.393862	0.735748	44.689000
25.420441	0.764013	44.734000
25.446158	0.794156	44.780000
25.472585	0.827029	44.826000
25.498749	0.861651	44.871000
25.525795	0.899118	44.917000
25.552743	0.935418	44.963000
25.580526	0.966456	45.009000
25.908352	0.963544	45.054000
25.935919	1.000157	45.619000
25.963182	1.009737	45.665000
25.989707	1.006960	45.711000
26.015648	0.990287	45.757000
26.042484	0.974974	45.803000
26.068864	0.966568	45.849000
26.095404	0.959077	45.895000
26.122423	0.951325	45.940000
26.149555	0.942274	45.986000
26.177077	0.933191	46.032000
26.203641	0.920802	46.078000
26.230266	0.908125	46.124000
26.320650	0.891563	46.169000
26.347625	0.889234	46.325000
26.439333	0.883463	46.371000
26.466400	0.873405	46.528000
26.492652	0.875551	46.574000
26.518960	0.878675	46.619000
26.544727	0.877089	46.665000
26.572224	0.870082	46.711000
26.598617	0.856812	46.757000
26.626064	0.840491	46.803000
26.653646	0.822271	46.848000
26.680119	0.804947	46.894000
26.706771	0.787740	46.940000
26.732785	0.774625	46.985000
26.758392	0.768016	47.032000
26.785317	0.765462	47.078000
26.813020	0.767531	47.123000
26.839762	0.773392	47.169000
26.866412	0.785296	47.215000
26.959390	0.849176	47.261000
26.985828	0.849705	47.420000
27.075638	0.849776	47.466000
27.102454	0.837790	47.621000
27.129876	0.839846	47.667000
27.157041	0.840774	47.713000
27.184052	0.836212	47.759000
27.210239	0.827765	47.804000
27.237004	0.821439	47.850000
27.263361	0.819201	47.896000
27.290618	0.819801	47.942000
27.317235	0.825642	47.988000
27.344588	0.833536	48.034000
27.370956	0.845117	48.079000
27.397306	0.856974	48.125000
27.423144	0.869518	48.171000
27.449729	0.883761	48.217000
27.476509	0.899854	48.262000
27.503918	0.915691	48.308000
27.600313	0.985594	48.354000
27.627560	0.998310	48.520000
27.718210	1.004528	48.566000
27.745703	0.980846	48.722000
27.772382	0.965953	48.768000
27.799197	0.949945	48.814000
27.825734	0.936734	48.860000
27.852232	0.927707	48.906000
27.879213	0.922298	48.952000
27.905267	0.920863	48.997000
27.932910	0.921336	49.043000
27.959491	0.925082	49.089000
27.986583	0.931129	49.135000
28.012528	0.937314	49.181000
28.039248	0.943064	49.227000
28.066015	0.950666	49.273000
28.092747	0.960021	49.319000
28.120051	0.971501	49.364000
28.147459	0.983295	49.410000
28.241927	1.017267	49.456000
28.268831	1.021048	49.620000
28.360597	1.024557	49.666000
28.387323	1.020200	49.822000
28.414258	1.012098	49.868000
28.440420	1.001908	49.914000
28.467168	0.992690	49.960000
28.493805	0.983710	50.005000
28.521102	0.974964	50.051000
28.548776	0.967650	50.097000
28.575407	0.962842	50.143000
28.601125	0.959511	50.189000
28.627779	0.954990	50.235000
28.653926	0.949249	50.280000
28.680960	0.938120	50.326000
28.707931	0.923583	50.372000
28.734612	0.907925	50.418000
28.761202	0.891865	50.463000
28.787693	0.880248	50.509000
29.117359	0.879408	50.555000
29.144105	0.832577	51.119000
29.170713	0.817119	51.165000
29.196818	0.801485	51.211000
29.223381	0.782340	51.257000
29.250041	0.763963	51.302000
29.277508	0.758143	51.348000
29.304019	0.764226	51.394000
29.331355	0.769944	51.440000
29.358145	0.769510	51.486000
29.384196	0.771586	51.531000
29.410783	0.785745	51.577000
29.437371	0.808828	51.623000
29.529141	0.871741	51.669000
29.556052	0.906175	51.825000
29.646434	0.937001	51.870000
29.673013	1.014501	52.027000
29.699750	1.034066	52.073000
29.726331	1.039633	52.119000
29.753548	1.029422	52.165000
29.780313	1.016540	52.210000
29.807357	1.006279	52.256000
29.833713	0.999994	52.302000
29.860682	0.997204	52.348000
29.886658	0.994852	52.394000
29.912787	0.993865	52.439000
29.940256	0.992650	52.485000
29.967219	0.990746	52.531000
29.994101	0.987041	52.577000
30.020767	0.982586	52.623000
30.047499	0.979631	52.668000
30.074001	0.975962	52.714000
30.167649	0.965812	52.760000
30.193548	0.966254	52.920000
30.285158	0.968322	52.966000
30.312277	0.983841	53.122000
30.339357	0.983316	53.168000
30.365154	0.983225	53.214000
30.392200	0.997461	53.260000
30.418405	1.020665	53.306000
30.445126	1.039804	53.351000
30.471553	1.048526	53.397000
30.498837	1.056860	53.443000
30.525604	1.071090	53.489000
30.551959	1.086065	53.534000
30.579056	1.099577	53.580000
30.604953	1.111869	53.626000
30.632237	1.124296	53.672000
30.659523	1.135955	53.718000
30.686999	1.150564	53.764000
30.713795	1.165286	53.810000
30.808899	1.219771	53.856000
30.835395	1.238793	54.020000
30.927979	1.255239	54.066000
30.954189	1.296172	54.222000
30.980476	1.293480	54.268000
31.006988	1.285833	54.314000
31.033905	1.270975	54.360000
31.060430	1.257886	54.406000
31.087501	1.243824	54.452000
31.114282	1.230492	54.498000
31.141324	1.213822	54.543000
31.167941	1.198368	54.589000
31.193479	1.185957	54.635000
31.220246	1.183422	54.681000
31.246506	1.189009	54.726000
31.274021	1.193774	54.772000
31.300850	1.196127	54.818000
31.328276	1.189626	54.864000
31.354474	1.195376	54.910000
31.450917	1.277069	54.955000
31.477667	1.300128	55.120000
31.568459	1.325924	55.166000
31.594755	1.393256	55.322000
31.621866	1.402131	55.368000
31.647971	1.403164	55.414000
31.675312	1.394853	55.460000
31.702326	1.376205	55.506000
31.728954	1.368635	55.552000
31.755257	1.374697	55.598000
31.781365	1.361468	55.643000
31.808661	1.340969	55.689000
31.835284	1.325520	55.735000
31.862038	1.328000	55.781000
31.889562	1.349714	55.826000
31.916467	1.367208	55.872000
31.942893	1.361600	55.918000
31.969443	1.343080	55.963000
31.995805	1.321015	56.009000
32.325452	1.232573	56.055000
32.351507	1.276196	56.619000
32.378614	1.271610	56.665000
32.404983	1.271650	56.711000
32.431860	1.278303	56.757000
32.459286	1.285491	56.803000
32.485552	1.292497	56.848000
32.512506	1.298702	56.894000
32.539021	1.303569	56.940000
32.565303	1.309038	56.986000
32.591499	1.310999	57.032000
32.618606	1.310999	57.078000
32.646033	1.313469	57.124000
32.736578	1.353518	57.169000
32.763224	1.379727	57.325000
32.853832	1.404899	57.371000
32.881381	1.494728	57.527000
32.908569	1.502108	57.573000
32.935599	1.495045	57.618000
32.962626	1.480892	57.665000
32.989084	1.470540	57.711000
33.015357	1.469051	57.756000
33.042003	1.478243	57.802000
33.068192	1.511597	57.848000
33.094793	1.544841	57.894000
33.122230	1.558206	57.940000
33.149714	1.555456	57.985000
33.175115	1.543790	58.031000
33.201954	1.526613	58.077000
33.228377	1.511375	58.123000
33.254777	1.501380	58.168000
33.281201	1.500103	58.214000
33.375842	1.529555	58.260000
33.402477	1.539277	58.421000
33.493883	1.554208	58.466000
33.520225	1.590484	58.623000
33.546722	1.592867	58.668000
33.573126	1.593649	58.714000
33.599695	1.592978	58.760000
33.626434	1.605783	58.806000
33.653468	1.631869	58.852000
33.680741	1.663530	58.897000
33.707564	1.696242	58.943000
33.733879	1.729079	58.989000
33.760015	1.766971	59.035000
33.787183	1.805049	59.080000
33.813822	1.834464	59.126000
33.840772	1.855889	59.172000
33.868186	1.867860	59.218000
33.894805	1.871192	59.264000
33.921006	1.867839	59.309000
34.017741	1.840014	59.355000
34.044464	1.865508	59.521000
34.134798	1.906201	59.567000
34.161298	2.010635	59.723000
34.188483	2.027443	59.768000
34.215040	2.041637	59.814000
34.241909	2.055921	59.860000
34.269009	2.059449	59.906000
34.295697	2.062509	59.952000
34.322701	2.069028	59.998000
34.348548	2.078501	60.044000
34.375321	2.090016	60.089000
34.402244	2.101382	60.135000
34.429520	2.105515	60.181000
34.456355	2.103298	60.227000
34.483001	2.099684	60.273000
34.509524	2.092961	60.318000
34.535905	2.078087	60.364000
34.562755	2.062806	60.410000
34.659183	2.065381	60.456000
34.685487	2.072074	60.620000
34.776601	2.076640	60.667000
34.803601	2.088142	60.823000
34.830047	2.099377	60.868000
34.857681	2.119432	60.914000
34.884027	2.142078	60.960000
34.911042	2.159865	61.006000
34.936824	2.167244	61.052000
34.963217	2.165173	61.098000
34.989998	2.158701	61.143000
35.017408	2.148459	61.189000
35.044635	2.138051	61.235000
35.070974	2.126579	61.281000
35.097543	2.115011	61.327000
35.123724	2.099488	61.372000
35.150666	2.076266	61.418000
35.176448	2.047527	61.464000
35.204005	2.015299	61.509000
35.532580	1.730318	61.555000
35.559845	1.685062	62.120000
35.587187	1.668776	62.165000
35.614632	1.648702	62.211000
35.641566	1.630032	62.257000
35.668255	1.611613	62.303000
35.694152	1.597722	62.349000
35.720110	1.588152	62.394000
35.746684	1.581237	62.440000
35.773437	1.576270	62.486000
35.800533	1.577204	62.532000
35.827594	1.584685	62.577000
35.854567	1.593038	62.623000
35.944548	1.628876	62.669000
35.971905	1.641857	62.825000
36.063019	1.658611	62.871000
36.090099	1.712235	63.027000
36.116799	1.718288	63.073000
36.143653	1.718298	63.118000
36.169385	1.713958	63.165000
36.196581	1.706670	63.210000
36.222712	1.694967	63.256000
36.249846	1.681887	63.302000
36.277042	1.667134	63.348000
36.303899	1.652225	63.393000
36.330461	1.637572	63.439000
36.356650	1.625837	63.485000
36.382966	1.615091	63.531000
36.409908	1.608065	63.577000
36.436370	1.602347	63.622000
36.463273	1.599202	63.668000
36.491268	1.600887	63.714000
36.584945	1.616448	63.760000
36.611672	1.618477	63.921000
36.702471	1.619558	63.966000
36.728802	1.629840	64.123000
36.755414	1.635558	64.168000
36.781795	1.645096	64.214000
36.808925	1.656771	64.260000
36.835671	1.667032	64.306000
36.862471	1.679811	64.351000
36.888983	1.688974	64.397000
36.915084	1.698172	64.443000
36.941376	1.705768	64.489000
36.968418	1.711498	64.534000
36.995917	1.718227	64.580000
37.022725	1.725364	64.626000
37.049360	1.734708	64.672000
37.075341	1.745927	64.717000
37.102076	1.760676	64.763000
37.128714	1.776244	64.809000
37.225914	1.824858	64.855000
37.252337	1.840876	65.021000
37.342595	1.858694	65.067000
37.370248	1.904162	65.223000
37.396806	1.911663	65.268000
37.424504	1.915192	65.315000
37.451062	1.923323	65.361000
37.477609	1.938733	65.406000
37.503913	1.952664	65.453000
37.529891	1.971633	65.498000
37.556952	1.992060	65.544000
37.583421	2.012215	65.590000
37.610840	2.022577	65.636000
37.637440	2.024592	65.682000
37.664098	2.029165	65.727000
37.690348	2.038371	65.773000
37.716848	2.040360	65.819000
37.743552	2.031639	65.865000
37.770199	2.026177	65.911000
37.866518	2.089850	65.956000
37.893495	2.110537	66.121000
37.983361	2.143485	66.166000
38.010917	2.240721	66.322000
38.037502	2.271934	66.368000
38.063883	2.298783	66.413000
38.090391	2.317937	66.459000
38.116711	2.333152	66.505000
38.143380	2.347032	66.551000
38.170706	2.366374	66.596000
38.198309	2.393080	66.642000
38.224406	2.417037	66.688000
38.251045	2.441053	66.734000
38.278136	2.460183	66.780000
38.304571	2.475047	66.826000
38.330903	2.491755	66.872000
38.358248	2.495899	66.918000
38.385432	2.487984	66.963000
38.412048	2.481210	67.009000
38.741007	2.371587	67.055000
38.768187	2.282291	67.620000
38.794918	2.266667	67.666000
38.821641	2.252271	67.711000
38.848606	2.239062	67.757000
38.874411	2.220574	67.803000
38.901246	2.200005	67.849000
38.927677	2.185050	67.895000
38.955529	2.177923	67.940000
38.982602	2.176415	67.986000
39.009359	2.179647	68.032000
39.035310	2.187075	68.078000
39.061953	2.195997	68.124000
39.152037	2.230175	68.170000
39.178830	2.243184	68.325000
39.270324	2.262519	68.371000
39.297235	2.389562	68.527000
39.323540	2.445483	68.573000
39.350282	2.498766	68.619000
39.377001	2.542829	68.665000
39.403982	2.569481	68.711000
39.431312	2.580812	68.757000
39.458323	2.584557	68.803000
39.484885	2.580525	68.848000
39.511316	2.566467	68.894000
39.537317	2.545933	68.940000
39.563621	2.525596	68.986000
39.590863	2.508001	69.032000
39.618316	2.494228	69.077000
39.645484	2.486959	69.123000
39.671981	2.484687	69.169000
39.698715	2.485173	69.215000
39.791785	2.505907	69.261000
39.818012	2.515596	69.421000
39.909207	2.530722	69.467000
39.935708	2.625101	69.623000
39.963552	2.651119	69.669000
39.990168	2.674293	69.715000
40.016860	2.696959	69.761000
40.043368	2.717679	69.806000
40.070314	2.739016	69.852000
40.096326	2.761574	69.898000
40.123115	2.777746	69.943000
40.150264	2.781183	69.989000
40.177671	2.778665	70.035000
40.202750	2.772108	70.080000
40.229619	2.767010	70.126000
40.255866	2.766228	70.172000
40.282147	2.771795	70.217000
40.309208	2.777115	70.263000
40.336185	2.777227	70.309000
40.433442	2.735347	70.354000
40.459812	2.722249	70.521000
40.551341	2.710089	70.567000
40.578187	2.670951	70.723000
40.605102	2.652364	70.769000
40.631310	2.629263	70.815000
40.658694	2.604774	70.860000
40.684679	2.577380	70.906000
40.711714	2.550672	70.952000
40.738429	2.523403	70.998000
40.765905	2.498332	71.044000
40.792194	2.475542	71.089000
40.818813	2.453625	71.135000
40.845705	2.432093	71.181000
40.871583	2.409849	71.227000
40.898230	2.384615	71.273000
40.924922	2.360262	71.318000
40.952379	2.339153	71.364000
40.979267	2.320775	71.410000
41.074665	2.292235	71.456000
41.101226	2.290848	71.621000
41.192394	2.289213	71.667000
41.218899	2.290167	71.823000
41.245745	2.287686	71.869000
41.272456	2.286340	71.915000
41.299429	2.285885	71.961000
41.326286	2.286118	72.006000
41.353689	2.286511	72.052000
41.380355	2.286249	72.098000
41.406529	2.284525	72.144000
41.432445	2.283088	72.189000
41.459264	2.282898	72.235000
41.486079	2.283496	72.281000
41.512641	2.284072	72.327000
41.539794	2.285528	72.373000
41.566771	2.288910	72.418000
41.593567	2.292175	72.464000
41.619495	2.298147	72.510000
41.950325	2.335534	72.556000
41.976092	2.396982	73.120000
42.002653	2.430568	73.166000
42.029323	2.454322	73.212000
42.055754	2.467249	73.258000
42.082327	2.482426	73.303000
42.109945	2.494914	73.349000
42.136776	2.513217	73.395000
42.163264	2.540923	73.440000
42.189719	2.565076	73.486000
42.215839	2.578291	73.532000
42.242466	2.586164	73.578000
42.269388	2.591043	73.624000
42.361763	2.570989	73.669000
42.388616	2.554174	73.825000
42.478267	2.536448	73.871000
42.504852	2.503292	74.028000
42.531813	2.501260	74.073000
42.558102	2.507263	74.119000
42.585758	2.527502	74.165000
42.612962	2.563126	74.211000
42.639643	2.587999	74.256000
42.665686	2.600188	74.302000
42.691840	2.598780	74.348000
42.718878	2.585762	74.394000
42.745644	2.570354	74.440000
42.773185	2.559074	74.486000
42.799451	2.558609	74.532000
42.826255	2.575223	74.577000
42.852720	2.603080	74.623000
42.879389	2.629253	74.669000
42.905728	2.649243	74.715000
42.999954	2.657614	74.760000
43.026205	2.679182	74.921000
43.118445	2.708495	74.967000
43.145694	2.800838	75.123000
43.171876	2.822351	75.169000
43.198380	2.836838	75.215000
43.224461	2.848386	75.261000
43.251196	2.858790	75.306000
43.277623	2.871584	75.352000
43.304853	2.891446	75.398000
43.332195	2.920772	75.443000
43.358899	2.945116	75.489000
43.384411	2.957697	75.535000
43.411319	2.958780	75.581000
43.437858	2.949709	75.627000
43.464734	2.934717	75.673000
43.491392	2.916200	75.718000
43.518542	2.891240	75.764000
43.545852	2.856478	75.810000
43.641462	2.718943	75.856000
43.668676	2.687105	76.021000
43.760059	2.659056	76.067000
43.786341	2.588735	76.223000
43.812664	2.585509	76.269000
43.838807	2.594174	76.315000
43.865112	2.608256	76.361000
43.892968	2.625371	76.406000
43.920164	2.627669	76.452000
43.946764	2.612585	76.498000
43.972957	2.602776	76.544000
43.999153	2.611688	76.590000
44.025846	2.628068	76.635000
44.052841	2.650815	76.681000
44.079468	2.670971	76.727000
44.107079	2.681314	76.773000
44.134067	2.688526	76.818000
44.160598	2.701788	76.864000
44.186680	2.719716	76.910000
44.284017	2.826182	76.955000
44.310502	2.869748	77.121000
44.400768	2.916709	77.167000
44.427133	2.984179	77.323000
44.454294	2.980515	77.369000
44.481225	2.969672	77.415000
44.508547	2.956190	77.461000
44.535370	2.942997	77.507000
44.561763	2.930735	77.552000
44.588344	2.920601	77.598000
44.614517	2.911944	77.644000
44.641398	2.905504	77.690000
44.667748	2.899200	77.736000
44.694883	2.894020	77.781000
44.722055	2.892183	77.827000
44.748855	2.902516	77.873000
44.774971	2.919516	77.919000
44.801272	2.937005	77.965000
44.828056	2.956461	78.011000
45.156328	2.997869	78.056000
45.182586	2.854348	78.620000
45.209520	2.829888	78.666000
45.236558	2.811413	78.712000
45.263151	2.798244	78.758000
45.290984	2.786992	78.803000
45.317146	2.780947	78.849000
45.343823	2.778352	78.894000
45.369448	2.779225	78.940000
45.396171	2.781445	78.986000
45.422709	2.787417	79.032000
45.450155	2.796185	79.077000
45.477185	2.805442	79.123000
45.567954	2.846766	79.169000
45.594258	2.869687	79.324000
45.685042	2.900345	79.371000
45.712172	3.018538	79.526000
45.738991	3.039223	79.573000
45.765949	3.054050	79.618000
45.792272	3.062220	79.664000
45.818957	3.063134	79.710000
45.845038	3.061848	79.756000
45.872338	3.059287	79.802000
45.899180	3.056899	79.848000
45.926544	3.056179	79.893000
45.953936	3.055835	79.939000
45.980409	3.059247	79.985000
46.006568	3.067342	80.031000
46.033214	3.077489	80.077000
46.059760	3.084444	80.123000
46.085634	3.085477	80.168000
46.113498	3.084262	80.214000
46.206495	3.137522	80.260000
46.234144	3.173441	80.421000
46.325489	3.204049	80.467000
46.352192	3.266710	80.623000
46.378889	3.286754	80.669000
46.405658	3.313419	80.715000
46.431409	3.343588	80.761000
46.459012	3.357439	80.807000
46.486319	3.345981	80.852000
46.513257	3.311300	80.898000
46.538935	3.260759	80.944000
46.565543	3.203409	80.990000
46.592635	3.147008	81.036000
46.619054	3.094221	81.082000
46.646127	3.053476	81.128000
46.672942	3.043532	81.174000
46.700176	3.064541	81.219000
46.726676	3.096974	81.265000
46.753292	3.122941	81.311000
46.849961	3.185838	81.357000
46.876527	3.213619	81.521000
46.966665	3.224799	81.567000
46.993396	3.080406	81.723000
47.019543	3.013558	81.769000
47.047587	2.948993	81.815000
47.074699	2.889296	81.861000
47.101399	2.833658	81.906000
47.127515	2.781951	81.952000
47.153869	2.734403	81.998000
47.180196	2.692170	82.044000
47.207165	2.655402	82.089000
47.233977	2.626464	82.136000
47.260926	2.602766	82.182000
47.288191	2.584849	82.227000
47.315252	2.571548	82.273000
47.341399	2.562994	82.319000
47.367477	2.562042	82.365000
47.394311	2.565222	82.411000
47.490819	2.581044	82.457000
47.517462	2.586815	82.621000
47.608096	2.593871	82.667000
47.634596	2.613658	82.824000
47.662598	2.628563	82.869000
47.689260	2.655331	82.915000
47.715795	2.689791	82.961000
47.742199	2.719594	83.007000
47.768557	2.747280	83.053000
47.795430	2.771734	83.098000
47.822314	2.789259	83.144000
47.849368	2.794655	83.190000
47.876813	2.794544	83.236000
47.903551	2.797098	83.282000
47.930082	2.810540	83.328000
47.956245	2.823011	83.374000
47.983183	2.824249	83.420000
48.009679	2.802908	83.466000
48.036717	2.763229	83.511000
48.364820	2.871766	83.557000
48.391735	3.136752	84.120000
48.418539	3.145763	84.166000
48.445976	3.136801	84.212000
48.472650	3.119977	84.258000
48.498823	3.105441	84.304000
48.524932	3.095044	84.349000
48.551478	3.072327	84.395000
48.578524	3.030362	84.441000
48.605888	2.975192	84.487000
48.633230	2.918390	84.532000
48.659361	2.881296	84.578000
48.685570	2.864039	84.624000
48.776642	2.925901	84.670000
48.803115	2.947535	84.826000
48.895090	2.950670	84.872000
48.921809	2.845277	85.028000
48.948720	2.802584	85.074000
48.975232	2.768822	85.120000
49.001398	2.769967	85.166000
49.027864	2.786170	85.211000
49.054441	2.800737	85.257000
49.081640	2.807742	85.303000
49.108786	2.820261	85.348000
49.135344	2.829449	85.394000
49.160949	2.826904	85.440000
49.187349	2.816632	85.486000
49.214418	2.802145	85.532000
49.240699	2.787073	85.578000
49.267714	2.776671	85.624000
49.295098	2.762810	85.669000
49.322098	2.737840	85.715000
49.415867	2.620714	85.761000
49.442678	2.609339	85.922000
49.532882	2.610584	85.968000
49.559532	2.443122	86.124000
49.586643	2.364409	86.170000
49.613850	2.290479	86.215000
49.640969	2.225628	86.261000
49.667527	2.171185	86.307000
49.694077	2.126358	86.353000
49.720650	2.089468	86.399000
49.747373	2.058071	86.444000
49.773290	2.032460	86.490000
49.800662	2.011099	86.536000
49.827009	1.991989	86.581000
49.854166	1.975585	86.627000
49.881311	1.959139	86.673000
49.907508	1.941775	86.719000
49.934012	1.922797	86.765000
49.960466	1.905571	86.811000
50.057093	1.864463	86.856000
50.083671	1.860324	87.022000
50.174612	1.853531	87.068000
50.201869	1.793498	87.224000
50.229737	1.769319	87.270000
50.255895	1.750565	87.316000
50.282772	1.739396	87.361000
50.308638	1.738312	87.407000
50.335411	1.745786	87.453000
50.361700	1.757525	87.498000
50.388942	1.770655	87.544000
50.415665	1.781683	87.590000
50.442284	1.792505	87.635000
50.468900	1.802383	87.681000
50.495465	1.809979	87.727000
50.521443	1.817399	87.773000
50.547909	1.824827	87.818000
50.575089	1.836621	87.864000
50.602150	1.857963	87.910000
50.698312	1.944067	87.956000
50.725105	1.939999	88.122000
50.818082	1.926426	88.168000
50.845259	1.838304	88.324000
50.871206	1.810674	88.370000
50.897295	1.785246	88.415000
50.923737	1.763235	88.461000
50.950437	1.747253	88.507000
50.976868	1.736584	88.553000
51.004241	1.729659	88.598000
51.031256	1.723282	88.644000
51.057841	1.716256	88.690000
51.084479	1.709422	88.736000
51.109719	1.702063	88.782000
51.136181	1.721419	88.827000
51.162912	1.793729	88.873000
51.190257	1.868061	88.919000
51.217557	1.925280	88.965000
51.244253	1.957387	89.011000
51.572978	1.812922	89.056000
51.600193	1.977867	89.621000
51.627446	2.038830	89.666000
51.653443	2.092088	89.712000
51.680201	2.147778	89.758000
51.705936	2.203921	89.804000
51.732809	2.247354	89.850000
51.759870	2.287785	89.896000
51.787754	2.331389	89.942000
51.814208	2.377050	89.988000
51.840266	2.416592	90.033000
51.867224	2.430745	90.079000
51.894004	2.418596	90.125000
51.984657	2.314934	90.171000
52.011845	2.289399	90.326000
52.103094	2.265301	90.372000
52.129329	2.129547	90.528000
52.155914	2.079831	90.574000
52.182134	2.033556	90.620000
52.209291	1.997910	90.666000
52.236191	1.969725	90.712000
52.263605	1.951163	90.757000
52.289825	1.935613	90.803000
52.316083	1.924700	90.849000
52.343029	1.917759	90.895000
52.369249	1.911451	90.941000
52.395964	1.907639	90.987000
52.422845	1.902835	91.032000
52.450494	1.898120	91.078000
52.477478	1.890568	91.124000
52.503948	1.878056	91.170000
52.529829	1.858421	91.215000
52.623418	1.758976	91.261000
52.649595	1.734266	91.422000
52.740721	1.712032	91.468000
52.767317	1.660142	91.624000
52.795062	1.659987	91.670000
52.821490	1.663857	91.715000
52.848697	1.672128	91.761000
52.874344	1.678273	91.807000
52.900660	1.683565	91.853000
52.927218	1.686015	91.898000
52.954425	1.677461	91.944000
52.981751	1.658813	91.990000
53.007998	1.635049	92.036000
53.035251	1.615202	92.081000
53.061448	1.605682	92.127000
53.088689	1.607272	92.173000
53.114756	1.612037	92.219000
53.141617	1.612799	92.264000
53.168797	1.609736	92.310000
53.264787	1.611512	92.356000
53.291487	1.612819	92.522000
53.383039	1.611865	92.568000
53.409716	1.608468	92.724000
53.436692	1.618810	92.770000
53.463073	1.640651	92.816000
53.489747	1.675732	92.861000
53.517000	1.716144	92.907000
53.543289	1.745998	92.953000
53.570477	1.759300	92.999000
53.597519	1.762509	93.044000
53.623930	1.761204	93.090000
53.650315	1.765353	93.136000
53.676992	1.790660	93.182000
53.703039	1.839640	93.228000
53.729712	1.893516	93.273000
53.757035	1.946621	93.319000
53.784707	2.003150	93.365000
53.810996	2.065359	93.411000
53.906981	2.261183	93.457000
53.933766	2.293745	93.622000
54.025130	2.310665	93.668000
54.051161	2.328467	93.824000
54.077535	2.322692	93.869000
54.103981	2.314783	93.915000
54.130497	2.297546	93.961000
54.157842	2.267609	94.007000
54.184458	2.230812	94.052000
54.211219	2.190277	94.098000
54.237804	2.149235	94.144000
54.264177	2.112612	94.190000
54.290340	2.087567	94.235000
54.317293	2.067425	94.281000
54.344677	2.051818	94.327000
54.371830	2.042510	94.373000
54.398381	2.036953	94.418000
54.424493	2.037947	94.464000
54.451243	2.040683	94.510000
54.781597	2.048164	94.556000
54.807920	2.198150	95.121000
54.834459	2.201008	95.167000
54.861144	2.201149	95.212000
54.887613	2.203759	95.259000
54.914993	2.217550	95.304000
54.941993	2.249743	95.350000
54.969012	2.267439	95.396000
54.994859	2.267912	95.442000
55.021793	2.277755	95.488000
55.048224	2.299141	95.533000
55.075193	2.317852	95.580000
55.101328	2.330305	95.625000
55.192147	2.328366	95.671000
55.218897	2.311184	95.826000
55.310457	2.317347	95.872000
55.336984	2.394286	96.028000
55.364010	2.391081	96.074000
55.391356	2.393322	96.120000
55.418102	2.393959	96.166000
55.444475	2.386740	96.212000
55.470568	2.372214	96.258000
55.497595	2.359625	96.303000
55.523888	2.332717	96.349000
55.550692	2.296758	96.395000
55.577395	2.261656	96.441000
55.604975	2.229152	96.487000
55.631414	2.200806	96.532000
55.658348	2.179526	96.578000
55.684772	2.170082	96.624000
55.711015	2.173553	96.670000
55.737684	2.194975	96.716000
55.830746	2.336224	96.761000
55.857822	2.383152	96.922000
55.949789	2.420878	96.968000
55.976589	2.462242	97.124000
56.003182	2.458238	97.170000
56.029886	2.453756	97.216000
56.055514	2.442727	97.262000
56.082863	2.420055	97.308000
56.109083	2.397114	97.353000
56.137189	2.380809	97.399000
56.163701	2.374303	97.445000
56.189959	2.370412	97.491000
56.216194	2.363890	97.536000
56.242763	2.352963	97.582000
56.269698	2.348713	97.628000
56.296329	2.353145	97.674000
56.323663	2.368675	97.719000
56.350774	2.385575	97.765000
56.377412	2.407779	97.811000
56.473294	2.451051	97.857000
56.500532	2.447135	98.022000
56.591139	2.433734	98.068000
56.617478	2.361831	98.224000
56.643736	2.338007	98.270000
56.670448	2.316343	98.316000
56.697509	2.298207	98.362000
56.725085	2.283981	98.407000
56.751935	2.276042	98.453000
56.778066	2.276254	98.499000
56.804343	2.280155	98.545000
56.831059	2.275235	98.590000
56.857513	2.265931	98.636000
56.884121	2.255896	98.682000
56.911478	2.255109	98.728000
56.938892	2.265739	98.774000
56.965554	2.288778	98.819000
56.991170	2.318725	98.865000
57.018032	2.350287	98.911000
57.115001	2.474508	98.957000
57.141520	2.522032	99.122000
57.231816	2.569139	99.168000
57.258294	2.671305	99.324000
57.285216	2.692856	99.370000
57.312950	2.712114	99.416000
57.340145	2.722390	99.462000
57.366861	2.724753	99.508000
57.393284	2.732449	99.554000
57.419458	2.752055	99.599000
57.446031	2.786534	99.645000
57.471886	2.824329	99.691000
57.499373	2.853480	99.737000
57.526458	2.870783	99.782000
57.553649	2.885410	99.828000
57.579873	2.901491	99.874000
57.606189	2.920339	99.920000
57.632728	2.940495	99.965000
57.659616	2.957113	100.011000
57.988583	2.827899	100.057000
58.015656	2.773152	100.621000
58.042148	2.808177	100.667000
58.069036	2.825969	100.713000
58.096324	2.843925	100.759000
58.122460	2.866920	100.804000
58.149398	2.869111	100.850000
58.175737	2.867966	100.896000
58.202729	2.875143	100.942000
58.229021	2.865411	100.988000
58.255975	2.838065	101.034000
58.283366	2.816471	101.079000
58.310381	2.811938	101.125000
58.400482	2.861788	101.171000
58.427274	2.888595	101.327000
58.518042	2.918667	101.373000
58.545418	3.095196	101.528000
58.572610	3.144680	101.574000
58.599383	3.192217	101.620000
58.625818	3.237595	101.666000
58.652403	3.280792	101.712000
58.678953	3.323646	101.758000
58.705430	3.360306	101.803000
58.732292	3.384455	101.849000
58.759065	3.400518	101.895000
58.785799	3.412939	101.941000
58.812438	3.425242	101.986000
58.838992	3.437469	102.032000
58.865377	3.444848	102.078000
58.891635	3.456179	102.124000
58.918869	3.459955	102.169000
58.946353	3.444687	102.215000
59.040060	3.275074	102.261000
59.067056	3.229473	102.422000
59.157790	3.190107	102.468000
59.183998	3.105612	102.624000
59.210640	3.075728	102.670000
59.237317	3.047966	102.716000
59.264102	3.014593	102.762000
59.291689	2.977974	102.808000
59.319181	2.943111	102.854000
59.344847	2.918057	102.899000
59.371478	2.900062	102.945000
59.397687	2.889528	102.991000
59.424506	2.887540	103.037000
59.450902	2.898705	103.082000
59.478002	2.926815	103.128000
59.505193	2.957051	103.174000
59.531771	2.975494	103.220000
59.558136	2.983211	103.265000
59.584790	2.986024	103.311000
59.681421	3.008780	103.357000
59.708505	3.025705	103.522000
59.798536	3.045739	103.568000
59.825843	3.050679	103.724000
59.851940	3.039776	103.770000
59.879174	3.018156	103.816000
59.906155	2.989788	103.862000
59.932394	2.965282	103.907000
59.959032	2.948619	103.953000
59.985644	2.944811	103.999000
60.012117	2.953589	104.044000
60.038590	2.974990	104.090000
60.066478	3.006109	104.136000
60.093012	3.042166	104.182000
60.119655	3.074645	104.228000
60.145890	3.109428	104.273000
60.172125	3.138848	104.319000
60.199267	3.136337	104.365000
60.226178	3.108616	104.411000
60.323032	2.985660	104.457000
60.349198	2.950420	104.622000
60.439579	2.922549	104.668000
60.467715	2.874341	104.824000
60.494062	2.873427	104.870000
60.521019	2.878549	104.916000
60.547558	2.888544	104.961000
60.574158	2.908871	105.008000
60.600516	2.938533	105.053000
60.626859	2.969945	105.099000
60.654362	3.007625	105.145000
60.681703	3.048971	105.190000
60.708311	3.091378	105.236000
60.734158	3.133550	105.282000
60.759936	3.181663	105.328000
60.787105	3.227893	105.373000
60.813820	3.267563	105.419000
60.841312	3.291947	105.465000
60.868189	3.299882	105.511000
61.196345	3.283482	105.557000
61.223349	3.160797	106.121000
61.250295	3.189123	106.167000
61.277325	3.218026	106.213000
61.303810	3.230447	106.258000
61.329776	3.229626	106.304000
61.356284	3.226626	106.350000
61.382761	3.218808	106.396000
61.410391	3.207365	106.441000
61.437222	3.184919	106.487000
61.464160	3.153529	106.533000
61.491002	3.120899	106.579000
61.516803	3.081994	106.625000
61.607871	2.984648	106.670000
61.635001	2.966538	106.826000
61.726223	2.954976	106.873000
61.752697	2.947209	107.028000
61.779370	2.946493	107.075000
61.805486	2.943324	107.121000
61.831782	2.935364	107.166000
61.858843	2.924180	107.212000
61.886147	2.909340	107.257000
61.913653	2.893522	107.304000
61.940438	2.879696	107.349000
61.966754	2.872312	107.395000
61.993842	2.877127	107.441000
62.020169	2.894192	107.487000
62.046931	2.922539	107.533000
62.073642	2.957606	107.578000
62.101184	2.992319	107.624000
62.127999	3.016261	107.669000
62.153450	3.024593	107.715000
62.248137	3.088491	107.761000
62.273954	3.116454	107.923000
62.365176	3.139760	107.968000
62.391576	3.192177	108.124000
62.418368	3.195493	108.170000
62.445956	3.195398	108.216000
62.473143	3.196523	108.262000
62.499390	3.198684	108.307000
62.526202	3.206714	108.354000
62.552806	3.221544	108.399000
62.578983	3.240634	108.445000
62.605376	3.258764	108.491000
62.632648	3.273952	108.537000
62.659371	3.285588	108.583000
62.685994	3.291165	108.628000
62.713125	3.295303	108.674000
62.739072	3.297520	108.720000
62.765714	3.299579	108.766000
62.792303	3.303067	108.812000
62.889356	3.267654	108.858000
62.915822	3.240119	109.022000
63.007071	3.204423	109.068000
63.034093	3.054182	109.224000
63.061646	3.016962	109.270000
63.087639	2.986285	109.316000
63.114397	2.968610	109.362000
63.140751	2.956130	109.408000
63.167451	2.943263	109.454000
63.193721	2.926168	109.499000
63.221128	2.902193	109.545000
63.248227	2.873509	109.591000
63.274332	2.838665	109.636000
63.301117	2.799754	109.682000
63.327348	2.764350	109.728000
63.354482	2.735327	109.774000
63.380913	2.716313	109.820000
63.408308	2.705472	109.866000
63.435469	2.697251	109.912000
63.530306	2.822830	109.958000
63.557179	2.872992	110.122000
63.649385	2.911162	110.168000
63.676023	2.985802	110.324000
63.702516	3.001956	110.370000
63.728874	3.021629	110.416000
63.755766	3.042388	110.462000
63.782147	3.063823	110.508000
63.809362	3.088511	110.554000
63.836077	3.114367	110.599000
63.863131	3.142664	110.645000
63.890053	3.169670	110.691000
63.915947	3.193646	110.737000
63.942274	3.212291	110.783000
63.969258	3.227630	110.828000
63.996246	3.246444	110.874000
64.022831	3.270717	110.920000
64.049731	3.285945	110.966000
64.076662	3.283866	111.012000
64.405464	3.210485	111.058000
64.432498	3.239407	111.621000
64.459232	3.236105	111.667000
64.485379	3.230851	111.713000
64.511334	3.224183	111.759000
64.537849	3.213376	111.805000
64.564934	3.194337	111.850000
64.592594	3.174082	111.896000
64.619340	3.151533	111.942000
64.645917	3.129170	111.988000
64.671987	3.108324	112.034000
64.698526	3.089594	112.079000
64.725741	3.080547	112.125000
64.817458	3.103355	112.171000
64.844327	3.123862	112.327000
64.935023	3.155547	112.373000
64.960970	3.301678	112.529000
64.987662	3.342880	112.575000
65.014116	3.380463	112.620000
65.041623	3.417110	112.666000
65.068623	3.450487	112.712000
65.095584	3.483612	112.758000
65.121831	3.514226	112.804000
65.148085	3.540767	112.850000
65.174524	3.566070	112.895000
65.201016	3.589442	112.941000
65.228031	3.612690	112.987000
65.255300	3.636353	113.033000
65.282653	3.658533	113.078000
65.308854	3.679561	113.124000
65.335484	3.697414	113.170000
65.362085	3.714650	113.216000
65.455154	3.729036	113.262000
65.482146	3.720042	113.423000
65.573526	3.701205	113.468000
65.600733	3.570551	113.625000
65.627702	3.524296	113.670000
65.653910	3.478925	113.716000
65.680648	3.436975	113.762000
65.707079	3.398809	113.808000
65.733749	3.362787	113.854000
65.760671	3.328859	113.899000
65.787602	3.293456	113.945000
65.814994	3.255852	113.991000
65.840894	3.215532	114.036000
65.867679	3.173875	114.082000
65.893626	3.132255	114.128000
65.920472	3.091227	114.174000
65.947157	3.054742	114.219000
65.974356	3.022863	114.266000
66.002086	2.995952	114.311000
66.097676	2.927364	114.357000
66.124652	2.917204	114.523000
66.216031	2.910279	114.568000
66.242240	2.922418	114.725000
66.268525	2.930242	114.770000
66.295294	2.937319	114.816000
66.321710	2.943596	114.862000
66.348709	2.946462	114.908000
66.375164	2.942907	114.953000
66.402640	2.938625	114.999000
66.429055	2.933512	115.045000
66.455732	2.926007	115.091000
66.482386	2.921211	115.136000
66.508825	2.917194	115.182000
66.535041	2.914569	115.228000
66.562309	2.912747	115.274000
66.590001	2.910229	115.319000
66.616078	2.904646	115.365000
66.642448	2.896383	115.410000
66.739966	2.834550	115.456000
66.766743	2.812305	115.623000
66.857323	2.787457	115.668000
66.883240	2.718551	115.825000
66.910147	2.701848	115.870000
66.937316	2.685214	115.916000
66.964108	2.670991	115.962000
66.991277	2.658326	116.008000
67.018023	2.646481	116.054000
67.044946	2.635589	116.100000
67.070747	2.625300	116.145000
67.096924	2.614430	116.191000
67.124108	2.603078	116.237000
67.150808	2.592757	116.283000
67.177800	2.580181	116.329000
67.204923	2.568397	116.375000
67.231024	2.556049	116.421000
67.257247	2.543871	116.466000
67.283917	2.533887	116.512000
67.613245	2.570523	116.557000
67.640037	2.653204	117.121000
67.665969	2.666081	117.167000
67.692715	2.678641	117.213000
67.719730	2.693455	117.259000
67.747060	2.711384	117.305000
67.773522	2.735225	117.350000
67.800360	2.762274	117.396000
67.826515	2.793701	117.442000
67.853107	2.824116	117.488000
67.879530	2.854205	117.534000
67.906230	2.890084	117.580000
67.933722	2.938764	117.625000
68.025109	3.086459	117.671000
68.051448	3.111116	117.827000
68.141744	3.128401	117.873000
68.168659	3.142935	118.029000
68.195797	3.163800	118.075000
68.222896	3.203449	118.121000
68.248851	3.245544	118.167000
68.276419	3.281847	118.212000
68.302996	3.300351	118.258000
68.329366	3.295425	118.304000
68.355843	3.276220	118.350000
68.382536	3.258244	118.396000
68.409873	3.250602	118.442000
68.436189	3.264544	118.487000
68.462843	3.293901	118.533000
68.489897	3.319916	118.579000
68.516696	3.332933	118.625000
68.543158	3.336482	118.671000
68.570012	3.336603	118.717000
68.663297	3.382852	118.763000
68.690773	3.409813	118.923000
68.781783	3.437167	118.969000
68.808806	3.503888	119.125000
68.834891	3.515279	119.171000
68.861568	3.521222	119.216000
68.888491	3.522008	119.262000
68.916006	3.515300	119.308000
68.942583	3.504923	119.354000
68.970151	3.495667	119.400000
68.996136	3.488793	119.446000
69.022406	3.485719	119.491000
69.048899	3.488280	119.537000
69.075153	3.495255	119.583000
69.101653	3.508827	119.629000
69.128837	3.527930	119.675000
69.156436	3.547884	119.720000
69.182890	3.568232	119.766000
69.209567	3.587640	119.812000
69.305780	3.621055	119.858000
69.332126	3.622665	120.023000
69.423106	3.620403	120.069000
69.449990	3.554801	120.225000
69.476168	3.520834	120.271000
69.502983	3.501107	120.316000
69.529837	3.492063	120.362000
69.557636	3.477549	120.408000
69.584197	3.451482	120.454000
69.610682	3.414430	120.500000
69.637513	3.367777	120.545000
69.663329	3.339868	120.591000
69.689891	3.336330	120.637000
69.717382	3.407495	120.683000
69.744620	3.502693	120.729000
69.770836	3.573015	120.774000
69.797068	3.623871	120.820000
69.823406	3.665946	120.866000
69.850514	3.701502	120.912000
69.947348	3.822292	120.957000
69.974110	3.840811	121.123000
70.064552	3.866177	121.169000
70.091674	3.986811	121.325000
70.118105	4.022246	121.371000
70.145274	4.058285	121.417000
70.172166	4.085122	121.462000
70.198374	4.104930	121.508000
70.225097	4.124358	121.554000
70.250945	4.148869	121.600000
70.278367	4.179986	121.646000
70.304929	4.220921	121.692000
70.332128	4.265775	121.737000
70.359804	4.306127	121.783000
70.386127	4.335511	121.829000
70.412551	4.349281	121.875000
70.439128	4.347702	121.921000
70.465920	4.342894	121.966000
70.492589	4.345128	122.012000
70.820727	4.491383	122.058000
70.847611	4.489496	122.622000
70.874219	4.485039	122.668000
70.901772	4.482787	122.713000
70.928710	4.479032	122.759000
70.955341	4.476599	122.805000
70.981403	4.474307	122.851000
71.008457	4.471935	122.897000
71.035241	4.472030	122.943000
71.061641	4.473621	122.989000
71.088902	4.477220	123.034000
71.115257	4.484367	123.080000
71.142425	4.497092	123.126000
71.231438	4.572326	123.172000
71.258561	4.598745	123.327000
71.349886	4.623401	123.373000
71.377186	4.674218	123.529000
71.404708	4.683834	123.575000
71.431108	4.693935	123.621000
71.457101	4.704524	123.667000
71.483663	4.716258	123.713000
71.510624	4.729438	123.759000
71.536971	4.745058	123.804000
71.563978	4.761988	123.850000
71.590747	4.778964	123.896000
71.617785	4.796954	123.942000
71.643832	4.814235	123.988000
71.669772	4.829416	124.033000
71.697025	4.842455	124.079000
71.723902	4.853837	124.125000
71.750732	4.859750	124.171000
71.777663	4.865329	124.217000
71.871693	4.895110	124.262000
71.898692	4.912770	124.423000
71.988996	4.938508	124.469000
72.015566	5.038828	124.625000
72.042442	5.065388	124.671000
72.069073	5.090432	124.717000
72.096342	5.112504	124.763000
72.123948	5.132548	124.809000
72.150049	5.150618	124.854000
72.176134	5.170794	124.900000
72.202781	5.193288	124.946000
72.229742	5.217048	124.992000
72.256234	5.237626	125.038000
72.283549	5.257612	125.084000
72.311202	5.274365	125.129000
72.337810	5.293035	125.175000
72.363895	5.311150	125.221000
72.390587	5.330413	125.267000
72.417111	5.348886	125.312000
72.513538	5.369000	125.359000
72.539785	5.364376	125.523000
72.631010	5.354827	125.569000
72.657564	5.314436	125.725000
72.684641	5.293956	125.771000
72.711879	5.279764	125.816000
72.738002	5.272596	125.862000
72.763926	5.270762	125.907000
72.790650	5.272727	125.953000
72.817081	5.277918	125.999000
72.843827	5.285735	126.045000
72.871049	5.298522	126.091000
72.898502	5.315764	126.137000
72.924880	5.338069	126.183000
72.951295	5.359581	126.228000
72.977611	5.372700	126.274000
73.004180	5.375546	126.320000
73.030996	5.369747	126.366000
73.057404	5.355619	126.412000
73.154146	5.349158	126.458000
73.181461	5.373155	126.623000
73.273347	5.404837	126.669000
73.300070	5.495688	126.825000
73.327470	5.503268	126.871000
73.353816	5.504617	126.917000
73.380263	5.496486	126.963000
73.406294	5.483044	127.008000
73.432963	5.501740	127.054000
73.459925	5.568465	127.100000
73.487347	5.613626	127.146000
73.513778	5.606981	127.191000
73.540263	5.571076	127.237000
73.566379	5.530613	127.283000
73.592964	5.506565	127.329000
73.619794	5.504455	127.375000
73.646733	5.521145	127.421000
73.673909	5.545389	127.466000
73.701247	5.575143	127.512000
74.028754	5.811187	127.558000
74.055999	6.059210	128.122000
74.083391	6.121682	128.167000
74.109592	6.181317	128.214000
74.135815	6.235018	128.259000
74.161701	6.281077	128.305000
74.189231	6.321164	128.351000
74.215723	6.361665	128.397000
74.243322	6.411070	128.443000
74.270591	6.475343	128.488000
74.297214	6.539434	128.534000
74.323806	6.592991	128.580000
74.349438	6.639748	128.626000
74.440111	6.806548	128.672000
74.467187	6.840903	128.828000
74.559089	6.869991	128.873000
74.585628	6.984050	129.030000
74.611898	7.031892	129.075000
74.638559	7.086277	129.121000
74.665613	7.145828	129.167000
74.691268	7.206393	129.213000
74.718536	7.258923	129.259000
74.745828	7.303548	129.305000
74.772551	7.337268	129.350000
74.799143	7.360352	129.396000
74.825244	7.376094	129.442000
74.852497	7.399581	129.488000
74.879397	7.439031	129.534000
74.905897	7.486020	129.580000
74.933381	7.531851	129.626000
74.960235	7.570572	129.671000
74.986527	7.614984	129.717000
75.079589	7.872619	129.763000
75.105775	7.954667	129.923000
75.195902	7.998914	129.969000
75.222940	8.199667	130.125000
75.250247	8.244912	130.171000
75.277392	8.262942	130.217000
75.303847	8.264024	130.263000
75.330331	8.259045	130.309000
75.356655	8.259206	130.355000
75.383086	8.266677	130.400000
75.409264	8.280496	130.446000
75.437808	8.295668	130.492000
75.464646	8.305531	130.537000
75.491400	8.308741	130.583000
75.517854	8.307678	130.629000
75.543901	8.310309	130.675000
75.570547	8.316928	130.721000
75.597201	8.326760	130.766000
75.624124	8.343341	130.812000
75.720459	8.451707	130.858000
75.746959	8.486499	131.023000
75.838277	8.519429	131.069000
75.865292	8.666706	131.225000
75.892553	8.720209	131.271000
75.919076	8.777123	131.317000
75.945092	8.834838	131.363000
75.972207	8.890660	131.409000
75.998761	8.942986	131.454000
76.025638	8.987470	131.500000
76.052791	9.029380	131.546000
76.079991	9.070160	131.592000
76.106184	9.111919	131.638000
76.132815	9.151219	131.684000
76.159653	9.184744	131.730000
76.186484	9.209319	131.776000
76.212484	9.231523	131.821000
76.239945	9.253782	131.867000
76.267052	9.275013	131.913000
76.362412	9.351730	131.959000
76.389534	9.385507	132.123000
76.480867	9.428996	132.169000
76.506738	9.617800	132.325000
76.534037	9.675301	132.371000
76.560376	9.731469	132.417000
76.586761	9.784938	132.463000
76.613776	9.836383	132.509000
76.640991	9.886948	132.555000
76.668382	9.939958	132.600000
76.693945	9.997450	132.646000
76.720338	10.054455	132.692000
76.747084	10.113252	132.737000
76.773776	10.178089	132.783000
76.800299	10.251110	132.829000
76.827699	10.332129	132.875000
76.854460	10.418443	132.921000
76.881252	10.503779	132.966000
76.907399	10.588299	133.012000
77.237135	11.322388	133.058000
77.263573	11.678121	133.622000
77.289590	11.747902	133.668000
77.316259	11.803870	133.714000
77.343090	11.856513	133.760000
77.370466	11.916046	133.805000
77.396536	11.987924	133.851000
77.423889	12.068524	133.897000
77.450789	12.153356	133.943000
77.477335	12.230575	133.989000
77.503113	12.307778	134.034000
77.529552	12.388701	134.080000
77.556505	12.460218	134.126000
77.647931	12.664046	134.172000
77.675076	12.723395	134.328000
77.765380	12.805735	134.374000
77.791873	13.179686	134.530000
77.818934	13.310498	134.576000
77.845565	13.457857	134.621000
77.873348	13.588145	134.667000
77.900263	13.674341	134.713000
77.926978	13.752766	134.758000
77.953110	13.841312	134.804000
77.979172	13.928820	134.850000
78.006018	14.002426	134.896000
78.032634	14.057601	134.942000
78.059956	14.103624	134.987000
78.087363	14.153281	135.033000
78.113310	14.210557	135.079000
78.140041	14.281070	135.125000
78.166226	14.350112	135.171000
78.192826	14.413682	135.216000
78.287048	14.634936	135.262000
78.313710	14.697535	135.423000
78.405250	14.771240	135.469000
78.432550	15.108409	135.625000
78.458351	15.218828	135.671000
78.485427	15.329635	135.717000
78.511382	15.442423	135.762000
78.538090	15.555161	135.808000
78.564628	15.668853	135.854000
78.591851	15.776855	135.900000
78.619035	15.888668	135.946000
78.646188	16.001007	135.992000
78.672842	16.099881	136.038000
78.699150	16.190354	136.084000
78.725720	16.282184	136.130000
78.752305	16.377763	136.176000
78.778851	16.482003	136.222000
78.806519	16.604356	136.267000
78.833542	16.743757	136.313000
78.928916	17.268824	136.359000
78.956485	17.408416	136.524000
79.046850	17.534231	136.569000
79.073304	17.929337	136.725000
79.099635	18.051064	136.771000
79.126397	18.169037	136.817000
79.153012	18.292198	136.862000
79.180004	18.424386	136.908000
79.207127	18.568396	136.954000
79.233642	18.720913	137.000000
79.260504	18.868614	137.046000
79.286735	19.016169	137.092000
79.313043	19.161481	137.138000
79.339735	19.308858	137.184000
79.366966	19.460866	137.230000
79.394326	19.606934	137.275000
79.421587	19.752594	137.321000
79.447527	19.903427	137.367000
79.474242	20.052988	137.412000
79.570862	20.571658	137.458000
79.597923	20.714861	137.624000
79.687904	20.846053	137.669000
79.714342	21.340331	137.825000
79.740996	21.496088	137.871000
79.767881	21.647103	137.917000
79.795618	21.793530	137.963000
79.822625	21.932704	138.009000
79.848826	22.065935	138.055000
79.875111	22.204343	138.100000
79.901619	22.338760	138.146000
79.928534	22.466236	138.192000
79.955418	22.584418	138.238000
79.982587	22.688549	138.284000
80.010102	22.791140	138.330000
80.036479	22.897048	138.375000
80.062995	23.003429	138.421000
80.089687	23.117203	138.467000
80.116195	23.246086	138.513000
80.445108	24.391113	138.559000
80.472054	25.163119	139.122000
80.498408	25.337933	139.168000
80.525024	25.516175	139.214000
80.552239	25.685868	139.260000
80.579361	25.832219	139.306000
80.605715	25.958501	139.352000
80.632400	26.069440	139.398000
80.658762	26.175729	139.443000
80.685316	26.297688	139.489000
80.712370	26.467050	139.535000
80.739246	26.672345	139.580000
80.767037	26.888750	139.626000
80.857487	27.641671	139.672000
80.884056	27.857468	139.828000
80.974252	28.060136	139.874000
81.001214	28.645008	140.030000
81.028259	28.794431	140.076000
81.055274	28.938249	140.121000
81.081506	29.081003	140.167000
81.108275	29.225986	140.213000
81.134306	29.377223	140.259000
81.160469	29.535764	140.305000
81.187222	29.702548	140.351000
81.214637	29.870721	140.396000
81.241929	30.035346	140.442000
81.268483	30.195138	140.488000
81.295705	30.353057	140.534000
81.321798	30.499160	140.580000
81.348529	30.642747	140.626000
81.374653	30.804820	140.671000
81.401299	30.981600	140.717000
81.495221	31.693555	140.763000
81.522137	31.914202	140.924000
81.614115	32.129247	140.969000
81.640815	32.783552	141.126000
81.667200	32.959118	141.171000
81.693770	33.134788	141.217000
81.720301	33.310175	141.263000
81.746747	33.486698	141.309000
81.774085	33.669217	141.355000
81.801300	33.857192	141.401000
81.827746	34.048979	141.446000
81.853847	34.244069	141.492000
81.880316	34.442601	141.538000
81.907639	34.646555	141.584000
81.934592	34.854273	141.630000
81.961676	35.061020	141.676000
81.988269	35.265424	141.722000
82.014400	35.465762	141.767000
82.041062	35.660241	141.813000
82.137835	36.363289	141.859000
82.165057	36.587550	142.024000
82.254962	36.814564	142.070000
82.281316	37.602843	142.226000
82.308408	37.835710	142.271000
82.335177	38.067621	142.317000
82.362584	38.316324	142.363000
82.389345	38.581210	142.409000
82.416114	38.859943	142.455000
82.441915	39.140948	142.501000
82.468047	39.419551	142.546000
82.494724	39.700667	142.592000
82.522208	39.985217	142.638000
82.548800	40.275082	142.684000
82.575531	40.563220	142.730000
82.602607	40.840771	142.775000
82.629499	41.112499	142.821000
82.656061	41.377475	142.867000
82.681970	41.635557	142.913000
82.778858	42.462486	142.959000
82.804943	42.644396	143.124000
82.895624	42.835935	143.170000
82.922761	43.570491	143.326000
82.949899	43.821769	143.371000
82.976638	44.081020	143.417000
83.003353	44.356628	143.463000
83.029723	44.648392	143.509000
83.056584	44.953449	143.555000
83.082769	45.268777	143.601000
83.109531	45.587370	143.646000
83.137199	45.913418	143.692000
83.163599	46.246434	143.738000
83.190684	46.569210	143.784000
83.217115	46.875655	143.829000
83.243738	47.149515	143.875000
83.269623	47.429335	143.921000
83.296408	47.717694	143.967000
83.323753	48.015085	144.013000
83.652306	50.465177	144.058000
