Sample	2mm tape 
date	07/01/2025
	
Temperature (K)	77.00
Angle (deg.)	0.000000
field / T	0.400000
	
		
Approx. trace time (s)	120.0	
		
Current / A	V1  -sample/ uV	time/s
-0.022314	-2.771071	0.000000
-0.023377	-2.792676	0.046000
-0.022606	-2.815001	0.092000
-0.022087	-2.811841	0.138000
-0.022570	-2.803405	0.184000
-0.022971	-2.787900	0.229000
-0.022869	-2.779814	0.275000
-0.022558	-2.774499	0.321000
-0.022690	-2.649609	0.366000
-0.022881	-2.611645	0.533000
-0.022332	-2.617185	0.579000
-0.020146	-2.526253	0.737000
-0.002645	-2.476904	0.783000
0.027724	-2.445437	0.828000
0.041868	-2.409519	0.874000
0.062301	-2.394685	0.920000
0.083121	-2.393998	0.966000
0.105052	-2.383423	1.011000
0.127322	-2.376771	1.057000
0.147277	-2.383534	1.103000
0.166828	-2.420801	1.149000
0.188691	-2.475503	1.195000
0.209107	-2.523581	1.241000
0.229848	-2.572649	1.287000
0.250545	-2.600712	1.333000
0.273731	-2.608253	1.378000
0.294567	-2.596540	1.424000
0.368278	-2.542765	1.470000
0.390057	-2.538088	1.634000
0.461326	-2.537247	1.679000
0.482961	-2.554066	1.837000
0.502940	-2.560845	1.883000
0.524156	-2.571761	1.929000
0.546354	-2.602598	1.975000
0.565932	-2.604548	2.020000
0.588097	-2.606847	2.066000
0.609203	-2.638868	2.112000
0.629086	-2.666468	2.158000
0.650172	-2.693122	2.204000
0.671882	-2.705569	2.249000
0.691125	-2.701718	2.295000
0.712582	-2.688801	2.341000
0.733416	-2.641530	2.387000
0.755001	-2.584574	2.433000
0.775362	-2.524087	2.478000
0.796473	-2.475301	2.524000
0.872429	-2.234208	2.570000
0.893580	-2.216177	2.734000
0.965597	-2.229318	2.779000
0.986224	-2.281370	2.937000
1.007055	-2.243383	2.983000
1.028247	-2.229126	3.029000
1.049054	-2.224287	3.074000
1.070239	-2.229722	3.120000
1.090301	-2.256012	3.166000
1.111482	-2.277681	3.211000
1.131772	-2.293828	3.257000
1.152642	-2.334027	3.303000
1.174149	-2.393640	3.349000
1.195342	-2.440834	3.394000
1.216852	-2.484584	3.440000
1.238349	-2.523460	3.486000
1.258387	-2.538300	3.532000
1.279759	-2.562880	3.577000
1.299998	-2.575264	3.623000
1.377064	-2.624897	3.669000
1.396427	-2.702153	3.834000
1.468856	-2.767942	3.880000
1.490463	-2.810917	4.037000
1.511147	-2.814467	4.083000
1.532583	-2.820821	4.129000
1.554095	-2.812286	4.175000
1.574247	-2.784549	4.221000
1.595641	-2.755236	4.267000
1.615620	-2.737282	4.312000
1.635982	-2.727591	4.358000
1.658474	-2.718991	4.404000
1.679583	-2.712475	4.450000
1.700246	-2.709890	4.495000
1.721105	-2.716477	4.541000
1.742465	-2.716865	4.587000
1.762241	-2.725017	4.633000
1.783629	-2.739221	4.679000
1.804441	-2.743416	4.725000
2.070748	-2.382591	4.770000
2.092160	-2.223617	5.349000
2.112862	-2.200407	5.395000
2.133996	-2.191495	5.441000
2.154770	-2.197704	5.487000
2.175838	-2.203879	5.533000
2.196567	-2.208476	5.579000
2.217682	-2.213778	5.625000
2.238690	-2.231878	5.670000
2.259996	-2.246421	5.716000
2.281456	-2.256400	5.762000
2.301948	-2.270055	5.807000
2.385264	-2.290405	5.853000
2.406248	-2.270725	6.034000
2.477708	-2.240326	6.080000
2.499457	-2.162987	6.237000
2.519660	-2.141040	6.283000
2.540570	-2.102836	6.329000
2.561224	-2.044969	6.375000
2.583268	-2.005410	6.420000
2.604386	-1.973894	6.466000
2.625125	-1.966937	6.512000
2.646049	-1.986250	6.557000
2.666046	-2.019321	6.603000
2.687120	-2.059545	6.649000
2.707495	-2.105577	6.695000
2.729520	-2.142760	6.740000
2.750008	-2.176047	6.786000
2.771983	-2.191152	6.832000
2.792231	-2.181868	6.878000
2.813339	-2.175189	6.923000
2.890125	-2.162795	6.969000
2.910010	-2.172780	7.134000
2.982104	-2.219771	7.180000
3.004171	-2.323841	7.337000
3.023830	-2.310091	7.383000
3.044764	-2.299143	7.429000
3.066295	-2.291386	7.475000
3.088148	-2.286146	7.520000
3.108222	-2.294116	7.566000
3.129437	-2.301057	7.612000
3.150093	-2.287807	7.658000
3.171806	-2.259156	7.704000
3.191408	-2.204912	7.749000
3.213291	-2.148279	7.795000
3.234748	-2.084288	7.841000
3.255264	-2.026216	7.887000
3.275676	-1.974614	7.933000
3.296908	-1.940711	7.979000
3.317663	-1.917618	8.024000
3.393150	-2.010615	8.069000
3.413867	-2.048129	8.234000
3.484741	-2.065125	8.280000
3.506761	-2.074803	8.437000
3.528357	-2.038745	8.483000
3.549560	-2.009994	8.529000
3.569897	-1.987784	8.574000
3.591720	-1.982197	8.620000
3.611579	-1.975221	8.666000
3.632574	-1.958645	8.712000
3.653239	-1.945133	8.757000
3.675388	-1.914534	8.803000
3.696318	-1.869439	8.849000
3.717394	-1.828054	8.895000
3.737894	-1.801870	8.941000
3.758668	-1.790916	8.986000
3.779169	-1.750059	9.032000
3.800845	-1.711647	9.078000
3.822257	-1.664718	9.124000
3.928092	-1.538667	9.170000
3.999437	-1.527665	9.401000
4.020338	-1.519411	9.557000
4.042078	-1.529926	9.603000
4.062965	-1.570357	9.648000
4.083641	-1.614018	9.694000
4.103874	-1.645818	9.740000
4.124827	-1.674175	9.786000
4.145415	-1.679804	9.832000
4.166708	-1.670092	9.878000
4.189157	-1.652875	9.923000
4.209819	-1.625339	9.969000
4.231474	-1.580129	10.015000
4.252608	-1.547223	10.060000
4.273149	-1.536527	10.106000
4.293959	-1.546522	10.152000
4.315132	-1.565167	10.198000
4.336151	-1.567051	10.244000
4.592332	-1.388527	10.290000
4.614112	-1.353498	10.850000
4.634695	-1.348801	10.895000
4.655897	-1.282732	10.941000
4.676781	-1.225768	10.987000
4.697753	-1.214135	11.033000
4.718796	-1.221982	11.079000
4.740356	-1.229301	11.125000
4.761806	-1.240375	11.171000
4.782317	-1.266589	11.216000
4.803276	-1.320524	11.262000
4.824748	-1.385881	11.308000
4.907302	-1.512632	11.354000
4.927964	-1.551856	11.534000
4.999490	-1.592782	11.580000
5.020163	-1.633454	11.737000
5.042121	-1.655908	11.783000
5.062903	-1.699129	11.829000
5.084967	-1.716622	11.875000
5.105806	-1.735216	11.920000
5.126596	-1.762863	11.966000
5.146980	-1.767176	12.012000
5.166696	-1.770368	12.058000
5.187731	-1.778831	12.104000
5.208739	-1.765408	12.150000
5.230477	-1.740247	12.196000
5.251798	-1.706023	12.241000
5.272656	-1.669079	12.287000
5.294078	-1.634568	12.333000
5.314888	-1.549328	12.379000
5.335882	-1.449214	12.425000
5.410223	-1.519129	12.470000
5.431312	-1.594802	12.634000
5.503132	-1.662864	12.680000
5.524756	-1.777738	12.837000
5.546302	-1.821689	12.883000
5.567127	-1.881079	12.929000
5.588408	-1.921814	12.975000
5.609385	-1.963673	13.021000
5.629893	-2.004206	13.066000
5.650709	-2.029804	13.112000
5.671780	-2.045862	13.158000
5.693504	-2.020176	13.204000
5.714409	-1.971270	13.249000
5.734849	-1.921703	13.295000
5.755746	-1.880735	13.341000
5.776658	-1.857901	13.386000
5.797690	-1.841956	13.432000
5.818879	-1.816783	13.478000
5.839950	-1.785459	13.523000
5.914946	-1.680793	13.569000
5.936252	-1.694422	13.734000
6.008863	-1.706557	13.780000
6.030193	-1.780257	13.937000
6.050925	-1.778191	13.983000
6.071423	-1.745886	14.029000
6.091969	-1.719072	14.075000
6.112646	-1.660506	14.120000
6.134015	-1.611398	14.166000
6.155475	-1.590976	14.212000
6.176582	-1.591991	14.258000
6.197371	-1.607572	14.303000
6.218332	-1.621054	14.349000
6.239412	-1.637507	14.395000
6.259975	-1.655545	14.441000
6.281228	-1.656155	14.486000
6.302409	-1.671766	14.532000
6.323859	-1.686060	14.578000
6.344149	-1.706327	14.623000
6.419481	-1.855947	14.670000
6.440869	-1.840139	14.834000
6.513244	-1.819135	14.880000
6.534278	-1.782878	15.037000
6.555555	-1.762046	15.083000
6.576528	-1.768816	15.129000
6.597160	-1.773820	15.175000
6.618351	-1.803450	15.221000
6.640238	-1.845474	15.267000
6.661297	-1.885894	15.313000
6.681647	-1.902218	15.359000
6.702509	-1.896802	15.405000
6.723579	-1.857073	15.450000
6.744765	-1.789863	15.496000
6.765331	-1.721451	15.542000
6.786479	-1.681190	15.588000
6.808365	-1.660485	15.634000
6.828805	-1.643318	15.679000
6.849686	-1.636100	15.725000
7.115376	-1.715589	15.771000
7.135851	-1.643750	16.350000
7.155845	-1.661175	16.396000
7.176810	-1.669940	16.442000
7.197744	-1.658796	16.487000
7.219647	-1.633933	16.533000
7.240518	-1.626664	16.579000
7.260718	-1.635803	16.624000
7.282549	-1.647894	16.670000
7.303417	-1.661345	16.716000
7.324042	-1.671603	16.762000
7.345137	-1.681734	16.808000
7.366135	-1.663423	16.854000
7.437944	-1.415930	16.899000
7.458789	-1.369592	17.055000
7.529507	-1.330873	17.101000
7.550289	-1.304416	17.256000
7.571500	-1.347380	17.302000
7.592866	-1.390309	17.348000
7.614194	-1.432254	17.394000
7.634615	-1.471125	17.440000
7.655637	-1.520688	17.486000
7.676435	-1.595440	17.531000
7.697476	-1.675480	17.578000
7.718065	-1.750141	17.623000
7.739500	-1.819155	17.669000
7.760934	-1.891623	17.714000
7.781833	-1.965126	17.761000
7.802616	-2.027444	17.806000
7.823301	-2.073447	17.852000
7.843908	-2.095730	17.898000
7.865651	-2.094556	17.944000
7.937436	-2.029280	17.990000
7.958651	-2.007889	18.145000
8.029588	-1.967172	18.191000
8.050653	-1.779153	18.347000
8.071087	-1.737808	18.393000
8.091197	-1.701961	18.439000
8.113437	-1.665131	18.485000
8.134609	-1.629739	18.531000
8.155568	-1.581976	18.576000
8.176303	-1.558798	18.622000
8.196288	-1.542458	18.668000
8.218344	-1.534811	18.714000
8.239134	-1.538451	18.760000
8.260638	-1.549410	18.805000
8.281981	-1.566202	18.851000
8.302859	-1.586171	18.897000
8.322892	-1.607022	18.942000
8.344009	-1.626428	18.988000
8.364923	-1.647965	19.034000
8.436511	-1.558515	19.080000
8.458358	-1.556445	19.235000
8.529541	-1.585332	19.281000
8.550353	-1.578286	19.438000
8.571643	-1.520577	19.483000
8.592292	-1.461696	19.529000
8.613070	-1.420907	19.575000
8.635123	-1.415027	19.621000
8.656249	-1.437595	19.667000
8.676614	-1.493693	19.713000
8.697595	-1.547466	19.759000
8.718489	-1.602365	19.805000
8.739453	-1.630549	19.850000
8.759688	-1.630782	19.896000
8.781030	-1.623685	19.942000
8.802315	-1.629305	19.988000
8.823019	-1.636765	20.033000
8.843906	-1.628706	20.079000
8.865091	-1.608979	20.125000
8.940351	-1.499816	20.170000
8.961017	-1.494698	20.335000
9.032729	-1.483725	20.380000
9.053581	-1.558423	20.538000
9.074729	-1.593494	20.583000
9.096460	-1.622027	20.629000
9.117330	-1.637058	20.675000
9.138003	-1.640146	20.721000
9.158759	-1.648236	20.767000
9.179036	-1.672929	20.813000
9.200213	-1.698630	20.859000
9.221350	-1.722258	20.904000
9.242325	-1.726945	20.950000
9.264191	-1.729712	20.996000
9.285414	-1.752102	21.042000
9.305962	-1.763473	21.087000
9.326618	-1.766653	21.133000
9.347734	-1.772006	21.179000
9.368318	-1.783110	21.225000
9.634180	-1.757107	21.270000
9.655288	-1.930370	21.850000
9.676379	-1.881250	21.896000
9.697232	-1.831673	21.942000
9.718658	-1.786582	21.987000
9.739394	-1.734344	22.033000
9.760028	-1.695616	22.079000
9.780813	-1.676044	22.125000
9.801594	-1.675217	22.170000
9.822317	-1.700716	22.216000
9.843833	-1.705201	22.262000
9.865284	-1.686674	22.307000
9.885602	-1.653236	22.353000
9.956575	-1.486728	22.399000
9.978398	-1.455837	22.554000
10.049781	-1.462535	22.600000
10.070759	-1.490085	22.756000
10.091308	-1.485158	22.802000
10.112239	-1.500523	22.848000
10.132731	-1.532015	22.894000
10.154040	-1.562553	22.940000
10.174598	-1.583163	22.986000
10.195641	-1.577271	23.032000
10.217325	-1.539769	23.078000
10.238540	-1.477026	23.124000
10.260031	-1.405876	23.170000
10.280807	-1.342077	23.215000
10.301473	-1.271202	23.261000
10.322715	-1.205048	23.307000
10.343216	-1.147728	23.353000
10.364301	-1.099797	23.398000
10.385800	-1.065044	23.444000
10.456998	-1.015910	23.490000
10.477701	-1.008450	23.646000
10.548410	-1.017474	23.691000
10.570076	-1.047937	23.847000
10.590967	-1.076946	23.894000
10.612753	-1.119483	23.939000
10.633491	-1.154825	23.985000
10.653796	-1.203060	24.031000
10.675041	-1.238988	24.077000
10.696065	-1.253640	24.122000
10.716849	-1.250682	24.168000
10.738439	-1.219473	24.214000
10.759452	-1.184564	24.260000
10.780677	-1.151347	24.306000
10.801418	-1.117588	24.352000
10.822331	-1.082826	24.397000
10.843091	-1.042354	24.443000
10.864272	-1.007688	24.489000
10.884926	-0.976483	24.535000
10.957433	-0.808737	24.581000
10.978107	-0.796813	24.737000
11.048824	-0.782337	24.783000
11.069621	-0.629822	24.939000
11.090445	-0.564980	24.985000
11.111441	-0.491697	25.031000
11.133030	-0.404696	25.076000
11.153431	-0.336099	25.122000
11.174654	-0.302641	25.168000
11.195547	-0.291382	25.214000
11.216318	-0.295895	25.260000
11.237299	-0.280100	25.306000
11.258711	-0.255706	25.351000
11.280029	-0.213584	25.397000
11.301311	-0.203747	25.443000
11.322355	-0.219373	25.489000
11.342981	-0.276674	25.535000
11.363229	-0.321844	25.580000
11.384776	-0.340044	25.626000
11.459570	-0.308226	25.672000
11.480024	-0.297566	25.835000
11.552267	-0.302972	25.881000
11.573186	-0.316345	26.038000
11.594504	-0.340105	26.084000
11.615815	-0.379973	26.130000
11.636374	-0.416233	26.175000
11.657105	-0.449075	26.221000
11.678268	-0.458340	26.267000
11.698915	-0.449196	26.313000
11.719582	-0.436656	26.358000
11.741511	-0.428597	26.404000
11.762618	-0.420526	26.450000
11.783427	-0.415758	26.496000
11.803877	-0.405028	26.541000
11.824611	-0.395835	26.587000
11.845749	-0.399520	26.633000
11.867094	-0.422332	26.679000
11.888693	-0.456626	26.724000
12.153914	-0.450920	26.770000
12.175284	-0.404897	27.350000
12.195999	-0.389479	27.396000
12.217327	-0.376510	27.442000
12.238282	-0.355250	27.488000
12.258955	-0.331834	27.533000
12.279847	-0.304945	27.580000
12.300636	-0.283992	27.625000
12.322057	-0.254328	27.671000
12.343430	-0.215886	27.717000
12.364942	-0.185357	27.763000
12.386010	-0.145503	27.809000
12.468020	-0.149923	27.854000
12.489418	-0.162108	28.035000
12.561471	-0.177896	28.081000
12.581861	-0.200910	28.238000
12.602874	-0.192829	28.284000
12.623795	-0.202817	28.330000
12.644504	-0.216512	28.375000
12.665906	-0.250396	28.421000
12.687828	-0.289873	28.467000
12.708232	-0.332161	28.513000
12.729248	-0.336970	28.559000
12.750385	-0.303926	28.605000
12.770846	-0.261374	28.651000
12.791967	-0.207996	28.697000
12.813006	-0.132030	28.742000
12.834361	-0.060362	28.788000
12.855734	-0.004852	28.834000
12.876157	0.035350	28.879000
12.896652	0.050148	28.925000
12.972118	-0.150575	28.971000
12.992520	-0.273276	29.135000
13.064659	-0.406728	29.181000
13.086144	-0.814101	29.338000
13.107103	-0.910264	29.384000
13.128174	-1.011267	29.430000
13.149875	-1.093144	29.475000
13.170561	-1.178439	29.521000
13.191194	-1.247829	29.567000
13.211887	-1.315343	29.613000
13.232629	-1.367112	29.659000
13.253670	-1.395613	29.704000
13.275071	-1.384186	29.750000
13.296249	-1.340861	29.796000
13.317660	-1.284830	29.842000
13.337978	-1.221100	29.888000
13.358713	-1.148945	29.934000
13.379541	-1.095192	29.979000
13.400436	-1.061777	30.025000
13.475583	-1.060521	30.071000
13.497394	-1.095894	30.235000
13.569644	-1.123207	30.281000
13.590516	-1.190577	30.438000
13.611692	-1.197785	30.484000
13.633003	-1.192301	30.530000
13.653421	-1.195406	30.576000
13.674602	-1.207517	30.621000
13.695371	-1.215360	30.667000
13.715943	-1.222224	30.713000
13.736889	-1.228076	30.759000
13.758562	-1.243868	30.805000
13.779519	-1.239191	30.851000
13.800891	-1.211604	30.897000
13.821167	-1.173964	30.942000
13.842275	-1.132540	30.988000
13.863514	-1.093356	31.034000
13.883997	-1.068673	31.080000
13.906024	-1.053818	31.126000
13.979488	-0.966681	31.171000
14.000670	-0.916045	31.335000
14.074024	-0.872899	31.381000
14.095212	-0.796712	31.538000
14.116152	-0.778864	31.584000
14.136904	-0.758546	31.630000
14.157543	-0.740725	31.676000
14.178519	-0.732882	31.722000
14.199421	-0.738954	31.767000
14.220476	-0.743722	31.813000
14.241637	-0.746546	31.859000
14.262936	-0.734338	31.905000
14.283008	-0.739857	31.950000
14.303681	-0.760669	31.996000
14.324919	-0.767856	32.042000
14.345821	-0.775683	32.087000
14.367755	-0.788360	32.133000
14.388949	-0.783792	32.179000
14.409446	-0.778537	32.225000
14.675253	-0.769156	32.271000
14.696386	-0.938924	32.850000
14.717267	-1.006940	32.896000
14.737928	-1.061269	32.942000
14.758611	-1.077845	32.988000
14.779388	-1.069727	33.034000
14.800300	-1.035216	33.080000
14.821789	-1.002367	33.126000
14.843669	-0.983136	33.171000
14.864320	-0.947815	33.217000
14.884436	-0.932981	33.263000
14.905265	-0.930511	33.309000
14.926143	-0.928570	33.354000
14.997402	-0.860510	33.400000
15.019410	-0.895798	33.556000
15.090844	-0.939978	33.602000
15.111024	-1.082559	33.758000
15.131543	-1.123873	33.804000
15.152495	-1.155354	33.850000
15.173590	-1.153144	33.895000
15.195196	-1.125443	33.941000
15.215916	-1.076345	33.987000
15.236668	-1.019641	34.033000
15.258062	-0.990037	34.079000
15.278980	-1.002559	34.124000
15.300073	-1.028221	34.170000
15.320684	-1.060147	34.216000
15.342287	-1.069707	34.262000
15.363405	-1.068461	34.307000
15.384246	-1.063106	34.353000
15.404672	-1.059779	34.399000
15.425831	-1.087924	34.445000
15.496997	-1.188178	34.490000
15.518235	-1.238067	34.646000
15.590089	-1.262255	34.692000
15.610837	-1.253343	34.848000
15.631844	-1.224251	34.894000
15.653248	-1.184543	34.940000
15.673774	-1.148197	34.986000
15.694476	-1.109184	35.031000
15.715101	-1.058108	35.077000
15.736531	-1.006259	35.123000
15.756857	-0.963193	35.168000
15.777975	-0.917229	35.214000
15.798740	-0.895879	35.260000
15.819483	-0.892603	35.306000
15.841099	-0.911054	35.351000
15.862436	-0.925450	35.397000
15.883921	-0.950998	35.443000
15.904234	-0.980794	35.488000
15.925340	-1.010509	35.534000
15.996320	-1.072090	35.580000
16.017309	-1.102057	35.736000
16.090246	-1.130677	35.782000
16.111489	-1.075577	35.938000
16.131742	-1.035408	35.984000
16.152545	-1.006653	36.030000
16.173615	-1.014553	36.076000
16.194476	-1.053849	36.122000
16.215329	-1.101043	36.167000
16.236794	-1.148051	36.213000
16.258014	-1.177234	36.259000
16.278562	-1.170471	36.305000
16.298833	-1.143695	36.350000
16.320047	-1.130737	36.396000
16.340861	-1.116686	36.442000
16.362152	-1.112345	36.488000
16.383495	-1.106132	36.533000
16.404382	-1.077531	36.580000
16.425176	-1.011766	36.625000
16.500562	-1.049632	36.671000
16.521643	-1.085602	36.835000
16.593827	-1.135755	36.881000
16.614709	-1.203232	37.038000
16.635522	-1.201655	37.084000
16.656013	-1.187320	37.130000
16.677166	-1.183646	37.176000
16.699002	-1.202587	37.222000
16.720063	-1.234129	37.267000
16.740651	-1.247718	37.313000
16.760822	-1.238333	37.359000
16.781945	-1.217820	37.405000
16.802666	-1.193006	37.450000
16.823659	-1.166888	37.496000
16.845632	-1.137430	37.542000
16.866872	-1.107827	37.587000
16.887416	-1.076824	37.633000
16.908113	-1.052117	37.679000
16.928692	-1.026464	37.725000
17.195062	-1.265046	37.770000
17.215194	-1.395563	38.351000
17.236249	-1.390505	38.396000
17.257697	-1.352597	38.442000
17.278512	-1.303680	38.488000
17.300093	-1.241064	38.534000
17.321916	-1.155178	38.580000
17.342538	-1.084487	38.626000
17.363114	-1.035418	38.672000
17.383727	-1.010570	38.717000
17.404734	-0.987047	38.763000
17.425988	-0.963941	38.809000
17.447167	-0.966529	38.855000
17.518562	-1.026242	38.900000
17.539294	-0.993020	39.056000
17.610312	-0.953471	39.102000
17.630973	-0.780946	39.258000
17.652519	-0.719921	39.304000
17.673998	-0.656231	39.350000
17.694630	-0.576953	39.396000
17.715785	-0.516088	39.441000
17.736033	-0.463460	39.487000
17.757058	-0.419766	39.532000
17.777957	-0.385492	39.578000
17.799185	-0.356113	39.624000
17.820297	-0.337726	39.670000
17.842474	-0.332595	39.715000
17.863280	-0.373880	39.762000
17.883426	-0.455718	39.807000
17.904896	-0.549853	39.853000
17.924919	-0.630907	39.898000
17.946000	-0.704470	39.944000
18.018477	-0.688369	39.990000
18.039109	-0.592393	40.146000
18.110590	-0.488607	40.192000
18.132126	-0.422064	40.348000
18.152641	-0.478213	40.394000
18.173354	-0.545623	40.440000
18.194577	-0.617858	40.486000
18.215953	-0.687389	40.531000
18.236725	-0.727624	40.577000
18.257864	-0.758859	40.623000
18.278168	-0.745628	40.669000
18.299005	-0.716322	40.715000
18.320102	-0.678243	40.761000
18.341894	-0.649755	40.807000
18.363335	-0.612882	40.852000
18.383913	-0.570321	40.898000
18.404459	-0.512946	40.944000
18.425667	-0.457125	40.990000
18.446539	-0.406974	41.036000
18.517938	-0.392060	41.082000
18.539701	-0.398022	41.238000
18.611180	-0.425345	41.284000
18.631595	-0.469413	41.440000
18.652218	-0.467583	41.485000
18.672959	-0.478807	41.531000
18.694016	-0.509027	41.577000
18.715589	-0.545310	41.623000
18.737168	-0.575146	41.669000
18.757721	-0.626031	41.714000
18.779285	-0.684720	41.760000
18.799957	-0.727351	41.806000
18.820520	-0.741052	41.851000
18.841240	-0.761742	41.897000
18.862514	-0.800103	41.943000
18.884289	-0.814347	41.989000
18.904930	-0.811692	42.034000
18.925522	-0.801812	42.080000
18.946723	-0.823031	42.126000
19.021782	-1.070465	42.172000
19.042545	-1.137123	42.335000
19.114203	-1.209795	42.381000
19.134850	-1.260349	42.538000
19.155918	-1.264024	42.584000
19.176948	-1.257818	42.630000
19.198002	-1.224340	42.676000
19.219149	-1.175199	42.721000
19.239931	-1.113390	42.767000
19.261039	-1.052036	42.813000
19.281228	-0.983833	42.859000
19.302693	-0.886609	42.904000
19.324038	-0.782326	42.950000
19.344937	-0.705970	42.996000
19.365941	-0.638276	43.041000
19.386623	-0.561967	43.087000
19.407469	-0.510468	43.133000
19.428435	-0.492221	43.179000
19.449067	-0.470124	43.224000
19.715523	-0.514883	43.270000
19.736376	-0.722688	43.851000
19.757540	-0.706263	43.897000
19.779233	-0.692244	43.942000
19.799707	-0.678486	43.988000
19.820748	-0.656231	44.034000
19.841761	-0.622422	44.079000
19.862604	-0.584352	44.125000
19.883432	-0.555274	44.171000
19.904575	-0.542523	44.217000
19.925700	-0.556888	44.262000
19.946546	-0.578138	44.308000
19.967182	-0.590516	44.354000
20.038227	-0.514741	44.400000
20.059615	-0.509706	44.555000
20.132009	-0.515669	44.601000
20.152783	-0.533590	44.757000
20.173943	-0.532575	44.803000
20.194231	-0.532545	44.849000
20.215213	-0.531763	44.895000
20.236562	-0.529535	44.941000
20.257049	-0.529118	44.986000
20.278388	-0.512503	45.032000
20.299487	-0.483949	45.078000
20.320828	-0.434347	45.124000
20.341512	-0.379792	45.170000
20.362438	-0.314444	45.215000
20.382732	-0.253233	45.261000
20.403709	-0.194827	45.307000
20.424733	-0.151150	45.353000
20.446464	-0.124933	45.398000
20.467419	-0.110170	45.444000
20.538514	0.028142	45.490000
20.559265	0.007486	45.646000
20.630905	-0.027389	45.691000
20.652738	-0.169034	45.847000
20.674200	-0.262581	45.893000
20.695051	-0.360992	45.939000
20.716055	-0.425965	45.985000
20.736380	-0.467976	46.031000
20.757456	-0.487675	46.077000
20.778197	-0.498022	46.122000
20.799569	-0.474211	46.168000
20.820804	-0.453173	46.214000
20.841726	-0.464473	46.260000
20.862160	-0.451203	46.305000
20.883055	-0.409057	46.351000
20.904302	-0.365761	46.397000
20.924997	-0.339072	46.443000
20.946213	-0.338890	46.489000
20.967341	-0.336541	46.535000
21.038238	-0.315241	46.580000
21.058772	-0.374984	46.736000
21.130599	-0.447839	46.781000
21.151751	-0.511681	46.939000
21.172821	-0.497306	46.984000
21.193864	-0.492659	47.030000
21.215176	-0.460270	47.076000
21.236362	-0.431297	47.122000
21.256759	-0.436645	47.168000
21.277547	-0.460899	47.213000
21.298482	-0.473360	47.259000
21.319566	-0.479323	47.304000
21.340801	-0.487941	47.350000
21.362274	-0.486288	47.396000
21.383029	-0.465910	47.442000
21.403440	-0.407035	47.488000
21.424195	-0.329536	47.533000
21.445113	-0.236091	47.579000
21.466028	-0.152448	47.625000
21.541950	0.105709	47.670000
21.563085	0.145171	47.836000
21.635352	0.166054	47.882000
21.657067	0.175857	48.039000
21.677884	0.211993	48.084000
21.698084	0.258913	48.130000
21.718781	0.271112	48.176000
21.739497	0.277932	48.222000
21.760696	0.267796	48.268000
21.782018	0.239599	48.314000
21.802874	0.221271	48.360000
21.824720	0.203301	48.405000
21.845754	0.188916	48.451000
21.866307	0.189182	48.497000
21.887396	0.194190	48.543000
21.907853	0.209050	48.588000
21.928910	0.205809	48.634000
21.950209	0.176750	48.680000
21.971417	0.142107	48.726000
22.236164	-0.015352	48.771000
22.257307	-0.218955	49.351000
22.278496	-0.198790	49.397000
22.300288	-0.147066	49.443000
22.321022	-0.098696	49.489000
22.342261	-0.079113	49.535000
22.362795	-0.059681	49.581000
22.383723	-0.017438	49.626000
22.405140	0.039629	49.672000
22.426028	0.112916	49.718000
22.447292	0.169865	49.764000
22.468024	0.215783	49.810000
22.550569	0.224990	49.855000
22.571839	0.161379	50.036000
22.643771	0.094433	50.082000
22.664536	0.020153	50.239000
22.685308	0.063807	50.285000
22.706130	0.105316	50.330000
22.727240	0.135444	50.376000
22.748685	0.160385	50.422000
22.769071	0.159259	50.468000
22.790031	0.157881	50.514000
22.810479	0.157588	50.560000
22.831787	0.144934	50.605000
22.852361	0.117775	50.651000
22.874271	0.082487	50.697000
22.895612	0.045058	50.743000
22.917194	0.014411	50.789000
22.937740	-0.035009	50.835000
22.958597	-0.092176	50.880000
22.979196	-0.125338	50.926000
23.054617	-0.136155	50.972000
23.075326	-0.146385	51.136000
23.147118	-0.143261	51.182000
23.167902	-0.028523	51.339000
23.189162	0.018767	51.384000
23.210247	0.051579	51.430000
23.231467	0.064312	51.476000
23.252082	0.053948	51.522000
23.272917	-0.006552	51.568000
23.293876	-0.079707	51.614000
23.314546	-0.150307	51.660000
23.335816	-0.202409	51.705000
23.357660	-0.240569	51.751000
23.378519	-0.280373	51.796000
23.399205	-0.336328	51.842000
23.419890	-0.376410	51.888000
23.440734	-0.402537	51.934000
23.461792	-0.412599	51.980000
23.483223	-0.414533	52.025000
23.558604	-0.376449	52.071000
23.579499	-0.352560	52.236000
23.651864	-0.333730	52.281000
23.672791	-0.311950	52.439000
23.693270	-0.332876	52.484000
23.714217	-0.342983	52.530000
23.734833	-0.344721	52.576000
23.756161	-0.325779	52.621000
23.776942	-0.310654	52.667000
23.797380	-0.289570	52.713000
23.819785	-0.261708	52.759000
23.840642	-0.242244	52.804000
23.861107	-0.227521	52.850000
23.882400	-0.203606	52.896000
23.903174	-0.179154	52.941000
23.923689	-0.166388	52.987000
23.944377	-0.156415	53.033000
23.966128	-0.137688	53.078000
23.986831	-0.124681	53.124000
24.062573	-0.108034	53.170000
24.083718	-0.160216	53.336000
24.156184	-0.240266	53.381000
24.176482	-0.416852	53.539000
24.197508	-0.482776	53.585000
24.218401	-0.554981	53.630000
24.239193	-0.593772	53.676000
24.259740	-0.605654	53.721000
24.281340	-0.571598	53.767000
24.302539	-0.519406	53.813000
24.323707	-0.467866	53.859000
24.343939	-0.403844	53.904000
24.364929	-0.346435	53.950000
24.385639	-0.300488	53.996000
24.407189	-0.265721	54.042000
24.428400	-0.237762	54.087000
24.449516	-0.188205	54.133000
24.470862	-0.150908	54.178000
24.490749	-0.120765	54.224000
24.756975	0.087275	54.270000
24.778320	0.292787	54.851000
24.798988	0.305734	54.897000
24.820000	0.333674	54.943000
24.840394	0.351668	54.989000
24.860917	0.357959	55.034000
24.883552	0.351346	55.080000
24.904653	0.357199	55.126000
24.925271	0.369507	55.171000
24.946057	0.404236	55.217000
24.967046	0.432660	55.263000
24.987500	0.476742	55.309000
25.008289	0.513897	55.354000
25.080110	0.589588	55.400000
25.101203	0.613817	55.556000
25.171711	0.649151	55.602000
25.192521	0.760635	55.758000
25.213463	0.772740	55.803000
25.235059	0.786047	55.849000
25.257016	0.799554	55.895000
25.277854	0.819495	55.941000
25.299052	0.825075	55.987000
25.319517	0.827070	56.032000
25.340391	0.834531	56.078000
25.361459	0.845454	56.124000
25.382170	0.871916	56.170000
25.403826	0.914094	56.215000
25.424698	0.966233	56.261000
25.445301	1.003194	56.307000
25.466477	1.018382	56.353000
25.487205	1.015329	56.398000
25.508198	0.990612	56.444000
25.580050	0.825518	56.490000
25.601381	0.746320	56.646000
25.672055	0.658984	56.692000
25.692361	0.535086	56.847000
25.713102	0.520222	56.893000
25.733999	0.503497	56.939000
25.755285	0.502606	56.985000
25.776946	0.526916	57.031000
25.797626	0.558045	57.077000
25.819340	0.599431	57.122000
25.839758	0.628163	57.168000
25.860863	0.658489	57.214000
25.882296	0.678878	57.259000
25.903028	0.689301	57.305000
25.924484	0.698069	57.351000
25.945275	0.701568	57.397000
25.965746	0.684465	57.442000
25.986601	0.674679	57.488000
26.007256	0.680559	57.534000
26.079069	0.705848	57.579000
26.100731	0.717932	57.736000
26.172325	0.736341	57.782000
26.193407	0.853595	57.939000
26.214444	0.894799	57.985000
26.235182	0.910612	58.031000
26.256280	0.903525	58.077000
26.277483	0.894890	58.122000
26.299025	0.879149	58.168000
26.320243	0.855994	58.214000
26.341511	0.839442	58.260000
26.361707	0.819667	58.306000
26.382268	0.782118	58.352000
26.402395	0.748501	58.397000
26.423845	0.711118	58.443000
26.445324	0.675198	58.489000
26.466540	0.656177	58.535000
26.487057	0.662362	58.580000
26.507889	0.686778	58.626000
26.584360	0.798194	58.672000
26.604556	0.852582	58.836000
26.676733	0.927759	58.882000
26.697528	1.206067	59.039000
26.717881	1.261141	59.085000
26.739093	1.290563	59.130000
26.760524	1.307977	59.176000
26.781262	1.326651	59.222000
26.802321	1.354056	59.267000
26.823638	1.372806	59.313000
26.843540	1.394248	59.359000
26.865425	1.397429	59.405000
26.886063	1.395635	59.451000
26.907357	1.381027	59.497000
26.929040	1.375317	59.542000
26.949678	1.371027	59.588000
26.969757	1.386345	59.634000
26.990540	1.419501	59.680000
27.011389	1.452653	59.726000
27.278213	1.901073	59.771000
27.298670	2.075799	60.351000
27.319442	2.098876	60.397000
27.340514	2.096911	60.443000
27.361709	2.094864	60.489000
27.383407	2.085036	60.535000
27.404060	2.093105	60.580000
27.424548	2.101336	60.626000
27.445389	2.113322	60.672000
27.465434	2.129396	60.717000
27.486517	2.131413	60.763000
27.508467	2.144684	60.809000
27.529610	2.171818	60.855000
27.601160	2.339967	60.900000
27.621550	2.402691	61.056000
27.692727	2.464944	61.102000
27.713828	2.533909	61.258000
27.735622	2.539080	61.304000
27.756905	2.555462	61.349000
27.777315	2.571773	61.395000
27.798369	2.594471	61.441000
27.819170	2.621510	61.487000
27.840261	2.662329	61.533000
27.861195	2.676442	61.579000
27.882538	2.693126	61.624000
27.903350	2.686547	61.670000
27.924101	2.695615	61.715000
27.944996	2.744976	61.762000
27.965494	2.812132	61.807000
27.986664	2.861327	61.853000
28.006904	2.894021	61.899000
28.028302	2.916977	61.945000
28.101140	3.026832	61.991000
28.122173	3.103541	62.147000
28.192984	3.200525	62.192000
28.213439	3.438164	62.348000
28.234932	3.497559	62.394000
28.256002	3.549486	62.440000
28.277385	3.584782	62.486000
28.298739	3.625154	62.531000
28.319244	3.666398	62.577000
28.339988	3.715347	62.623000
28.360691	3.761185	62.669000
28.381966	3.809742	62.714000
28.403299	3.853024	62.760000
28.424408	3.892405	62.806000
28.445529	3.930511	62.852000
28.465773	3.960033	62.898000
28.485762	3.987900	62.943000
28.507399	4.013507	62.989000
28.527886	4.044358	63.035000
28.600870	4.276514	63.081000
28.621805	4.332417	63.237000
28.693240	4.368044	63.283000
28.713659	4.473516	63.439000
28.734694	4.504959	63.485000
28.755230	4.543971	63.531000
28.777484	4.569782	63.577000
28.799168	4.584779	63.622000
28.819506	4.588579	63.668000
28.839852	4.586278	63.714000
28.860982	4.572785	63.760000
28.881660	4.564077	63.806000
28.903016	4.561867	63.852000
28.924234	4.562271	63.898000
28.945006	4.576768	63.943000
28.966475	4.607539	63.989000
28.987557	4.655341	64.035000
29.008300	4.718079	64.081000
29.029524	4.783782	64.127000
29.104142	5.018055	64.173000
29.124999	5.058962	64.337000
29.196445	5.087207	64.383000
29.217844	5.160506	64.539000
29.239307	5.180416	64.585000
29.260904	5.191025	64.631000
29.281676	5.208692	64.677000
29.302216	5.244786	64.722000
29.323151	5.308372	64.768000
29.344544	5.382418	64.814000
29.365101	5.462511	64.860000
29.386499	5.534766	64.906000
29.408261	5.597252	64.952000
29.429463	5.662182	64.998000
29.449797	5.722007	65.044000
29.470554	5.798356	65.090000
29.491259	5.882245	65.135000
29.512838	5.948689	65.181000
29.533336	5.984295	65.227000
29.798188	6.215055	65.273000
29.819255	6.508733	65.852000
29.840565	6.522977	65.898000
29.862328	6.556678	65.943000
29.883446	6.593502	65.989000
29.903705	6.642001	66.035000
29.924362	6.702417	66.081000
29.944977	6.778684	66.127000
29.966220	6.865744	66.172000
29.988147	6.958347	66.218000
30.008734	7.040434	66.264000
30.029996	7.125028	66.310000
30.050567	7.214595	66.356000
30.121645	7.523926	66.401000
30.142617	7.616533	66.558000
30.214347	7.714675	66.603000
30.235500	8.020851	66.759000
30.256530	8.083123	66.805000
30.277880	8.149129	66.851000
30.298452	8.219185	66.897000
30.319538	8.297061	66.943000
30.340037	8.390268	66.989000
30.361211	8.479273	67.034000
30.382433	8.555593	67.080000
30.403896	8.618311	67.126000
30.424259	8.672162	67.172000
30.445500	8.727985	67.218000
30.466455	8.800102	67.264000
30.487200	8.890800	67.309000
30.508388	8.988483	67.355000
30.529844	9.095259	67.401000
30.551025	9.200588	67.447000
30.621782	9.609300	67.492000
30.642956	9.728222	67.648000
30.713083	9.842404	67.694000
30.734650	10.289174	67.849000
30.756475	10.412406	67.895000
30.777222	10.524085	67.941000
30.798038	10.635217	67.987000
30.818757	10.731685	68.032000
30.839197	10.823345	68.078000
30.859990	10.922700	68.124000
30.881974	11.027138	68.170000
30.903586	11.134203	68.216000
30.924043	11.237465	68.262000
30.945182	11.335149	68.308000
30.965628	11.429260	68.353000
30.986683	11.503562	68.399000
31.007180	11.545901	68.445000
31.029093	11.599629	68.490000
31.050248	11.683048	68.536000
31.121278	12.102149	68.582000
31.142432	12.230630	68.738000
31.213218	12.363028	68.784000
31.234278	12.759043	68.939000
31.255629	12.867614	68.985000
31.277290	12.978261	69.031000
31.297865	13.085378	69.077000
31.318470	13.186348	69.122000
31.339284	13.300554	69.169000
31.359724	13.460734	69.214000
31.381111	13.613724	69.260000
31.402250	13.760617	69.306000
31.423702	13.880584	69.352000
31.444976	13.997201	69.398000
31.465070	14.116306	69.444000
31.486190	14.244677	69.489000
31.507609	14.364942	69.535000
31.527905	14.474144	69.581000
31.549089	14.576946	69.626000
31.624548	15.020422	69.672000
31.645437	15.154159	69.837000
31.717677	15.276445	69.882000
31.739039	15.684599	70.040000
31.759990	15.770622	70.085000
31.780215	15.830038	70.131000
31.800906	15.875267	70.177000
31.821694	15.927763	70.222000
31.843012	16.000822	70.268000
31.864087	16.085208	70.314000
31.885447	16.165909	70.360000
31.906944	16.284788	70.405000
31.927495	16.406833	70.451000
31.948221	16.550055	70.497000
31.969208	16.673201	70.542000
31.990081	16.793029	70.588000
32.011241	16.904991	70.634000
32.032879	17.034051	70.680000
32.053423	17.152957	70.726000
32.319820	18.362066	70.771000
32.341195	19.027251	71.352000
32.361814	19.234375	71.398000
32.382897	19.415075	71.444000
32.403239	19.618601	71.490000
32.424465	19.829276	71.536000
32.445379	20.032055	71.581000
32.466363	20.225086	71.627000
32.487742	20.397091	71.673000
32.508383	20.571702	71.719000
32.529390	20.744626	71.764000
32.550266	20.934678	71.810000
32.570923	21.166126	71.856000
32.642460	21.890811	71.902000
32.663858	22.061433	72.058000
32.734727	22.257511	72.104000
32.755998	22.904766	72.259000
32.776502	23.066495	72.305000
32.797535	23.233092	72.351000
32.818169	23.416638	72.397000
32.840044	23.625739	72.443000
32.862410	23.834644	72.489000
32.883394	24.028340	72.535000
32.904297	24.222571	72.580000
32.925192	24.415553	72.626000
32.945541	24.616330	72.672000
32.966513	24.803957	72.718000
32.987378	24.976254	72.764000
33.008884	25.135077	72.809000
33.030248	25.291636	72.855000
33.050616	25.460068	72.900000
33.071066	25.655191	72.947000
33.142126	26.333020	72.992000
33.163041	26.523817	73.148000
33.235450	26.700506	73.194000
33.256341	27.272043	73.350000
33.277167	27.455835	73.395000
33.298093	27.667426	73.441000
33.318708	27.901957	73.487000
33.339553	28.124570	73.533000
33.361220	28.316929	73.579000
33.382500	28.497694	73.625000
33.403249	28.663511	73.670000
33.424324	28.800831	73.716000
33.444697	28.940277	73.762000
33.465888	29.095085	73.808000
33.486610	29.283688	73.854000
33.507721	29.479687	73.900000
33.528727	29.662567	73.945000
33.549922	29.850038	73.991000
33.570817	30.022651	74.037000
33.641401	30.653434	74.083000
33.662035	30.874189	74.238000
33.734982	31.095952	74.284000
33.756077	31.863483	74.440000
33.776945	32.089013	74.485000
33.797594	32.311867	74.531000
33.818420	32.542033	74.577000
33.839511	32.783715	74.622000
33.860368	33.028167	74.668000
33.881056	33.289007	74.714000
33.902662	33.540819	74.760000
33.923568	33.791649	74.806000
33.944425	34.044330	74.851000
33.965355	34.293399	74.897000
33.985662	34.532985	74.943000
34.006454	34.747287	74.989000
34.028294	34.964191	75.035000
34.049424	35.181345	75.080000
34.070442	35.387898	75.126000
34.175778	35.758727	75.172000
34.247618	36.250259	75.404000
34.268698	37.424406	75.560000
34.290100	37.706883	75.605000
34.310454	37.985010	75.651000
34.331287	38.271019	75.697000
34.351575	38.578254	75.743000
34.373208	38.877423	75.789000
34.394499	39.172276	75.834000
34.415951	39.452373	75.880000
34.437231	39.711858	75.926000
34.457234	39.988937	75.972000
34.477903	40.245590	76.018000
34.498314	40.495886	76.063000
34.519378	40.724775	76.109000
34.541180	40.921012	76.155000
34.561975	41.121444	76.201000
34.582598	41.339338	76.246000
34.840581	43.151120	76.292000
34.861492	44.455827	76.852000
34.882018	44.740690	76.898000
34.903643	45.024836	76.944000
34.923978	45.298628	76.990000
34.944880	45.552732	77.035000
34.966540	45.803594	77.081000
34.987600	46.047434	77.127000
35.008434	46.309585	77.173000
35.029667	46.571691	77.219000
35.049790	46.842501	77.264000
35.070682	47.108434	77.310000
35.091650	47.366750	77.356000
